Time:250Hz,Epoch,Channel 1,Channel 2,Channel 3,Channel 4,Channel 5,Channel 6,Channel 7,Channel 8,Event Id,Event Date,Event Duration
0.0000000000,0,178697.9375000000,181969.1093750000,163413.4218750000,160187.3593750000,129810.7265625000,117973.6562500000,129454.9843750000,146527.1718750000,,,
0.0040000000,0,178517.3750000000,187487.9843750000,162829.7656250000,159423.8750000000,129085.0546875000,117264.0781250000,128673.8984375000,147987.3281250000,,,
0.0079999999,0,178479.2500000000,201238.3437500000,162617.7187500000,159114.9375000000,128815.3359375000,116983.7343750000,128378.8046875000,149535.9687500000,,,
0.0119999999,0,178600.6250000000,204152.7656250000,162958.6562500000,159554.9218750000,129232.8203125000,117382.2031250000,128825.5781250000,149125.1093750000,,,
0.0159999998,0,178731.4375000000,193539.6250000000,163427.0937500000,160185.6406250000,129821.1093750000,117970.0312500000,129468.5000000000,147428.6250000000,,,
0.0199999998,0,178661.8125000000,181978.9687500000,163387.1406250000,160192.7500000000,129791.7656250000,117964.1328125000,129439.7734375000,146491.9843750000,,,
0.0240000000,0,178485.6093750000,187337.9687500000,162804.5000000000,159433.9062500000,129060.3281250000,117251.6562500000,128667.8906250000,147947.5312500000,,,
0.0279999999,0,178478.8593750000,201169.7500000000,162632.3125000000,159143.6562500000,128827.0546875000,116991.3750000000,128397.7109375000,149541.6562500000,,,
0.0319999999,0,178608.8125000000,204210.4375000000,162973.8125000000,159573.9218750000,129246.1718750000,117406.1484375000,128835.3437500000,149153.8750000000,,,
0.0359999998,0,178726.7656250000,193641.3281250000,163420.3906250000,160212.2343750000,129813.1171875000,117968.6406250000,129455.3593750000,147444.9687500000,,,
0.0399999998,0,178666.0468750000,182029.4218750000,163396.0312500000,160245.1875000000,129802.8984375000,117958.7656250000,129453.5078125000,146504.2656250000,,,
0.0440000000,0,178495.6406250000,187226.2031250000,162825.4843750000,159476.8281250000,129087.2031250000,117257.1796875000,128701.8984375000,147940.3906250000,,,
0.0480000000,0,178472.5468750000,201077.9218750000,162623.1093750000,159138.1406250000,128822.1484375000,116971.9062500000,128396.3671875000,149536.9062500000,,,
0.0519999999,0,178591.7187500000,204213.3593750000,162956.0156250000,159567.0781250000,129233.8671875000,117360.0156250000,128814.1015625000,149147.2031250000,,,
0.0559999999,0,178725.2187500000,193709.9687500000,163421.6875000000,160194.3125000000,129827.3593750000,117948.9218750000,129468.7968750000,147455.1875000000,,,
0.0599999998,0,178675.0625000000,182052.0937500000,163411.3593750000,160215.0937500000,129834.5703125000,117951.4687500000,129500.5312500000,146515.8281250000,,,
0.0639999998,0,178515.5781250000,187109.0468750000,162850.2656250000,159462.8437500000,129123.2265625000,117271.2343750000,128746.2421875000,147944.1718750000,,,
0.0680000000,0,178497.6250000000,200982.9375000000,162654.7031250000,159142.4062500000,128863.1015625000,116986.4687500000,128444.0625000000,149565.9843750000,,,
0.0719999999,0,178631.3906250000,204209.2812500000,162999.4687500000,159607.8437500000,129283.1640625000,117395.1796875000,128871.1718750000,149205.0625000000,,,
0.0759999999,0,178756.2187500000,193793.2187500000,163458.6406250000,160235.7500000000,129866.7343750000,117968.2343750000,129514.8515625000,147504.4375000000,,,
0.0799999998,0,178673.6562500000,182130.5468750000,163411.1406250000,160194.1250000000,129844.7656250000,117969.9531250000,129518.6328125000,146513.3281250000,,,
0.0839999998,0,178511.3906250000,187008.5781250000,162846.6093750000,159434.7656250000,129131.5937500000,117283.6796875000,128766.3281250000,147925.1562500000,,,
0.0880000000,0,178508.7031250000,200865.0625000000,162657.8750000000,159124.0625000000,128877.5625000000,117015.5703125000,128473.4843750000,149566.4062500000,,,
0.0919999999,0,178659.1718750000,204224.4687500000,163033.6718750000,159572.9843750000,129330.9062500000,117426.2656250000,128941.0468750000,149230.7343750000,,,
0.0959999999,0,178762.0937500000,193900.4843750000,163475.1406250000,160193.2968750000,129899.9140625000,117977.8906250000,129553.0234375000,147489.9531250000,,,
0.0999999999,0,178697.0781250000,182128.4218750000,163446.0625000000,160219.1718750000,129891.6484375000,118002.4062500000,129586.1484375000,146478.0781250000,,,
0.1039999998,0,178544.2968750000,186816.5312500000,162898.2968750000,159494.6562500000,129191.7812500000,117333.0625000000,128853.5781250000,147899.7656250000,,,
0.1079999998,0,178529.3125000000,200653.8281250000,162694.0781250000,159154.6562500000,128919.2968750000,117052.4218750000,128542.3125000000,149577.5937500000,,,
0.1120000000,0,178654.4375000000,204124.2031250000,163038.0781250000,159572.7968750000,129344.1328125000,117438.8984375000,128984.1250000000,149241.9687500000,,,
0.1159999999,0,178770.7343750000,193941.9531250000,163499.8906250000,160219.6562500000,129927.0781250000,117997.0390625000,129587.9453125000,147487.3125000000,,,
0.1199999999,0,178698.2812500000,182112.0937500000,163476.2343750000,160245.7500000000,129927.5937500000,118016.2500000000,129607.0156250000,146424.6250000000,,,
0.1239999998,0,178510.7500000000,186637.9531250000,162889.0000000000,159480.2812500000,129190.1171875000,117318.3671875000,128851.2968750000,147814.9843750000,,,
0.1279999998,1,178486.9531250000,200484.8593750000,162675.1875000000,159128.5937500000,128900.8125000000,117019.9921875000,128513.7734375000,149520.9218750000,,,
0.1319999998,1,178606.9531250000,204040.4218750000,163014.3281250000,159547.3437500000,129322.2968750000,117409.5078125000,128936.7265625000,149193.9531250000,,,
0.1359999997,1,178714.7500000000,193758.1406250000,163455.0156250000,160200.7812500000,129898.3281250000,117964.6406250000,129569.7265625000,147428.3437500000,,,
0.1399999997,1,178644.0781250000,181764.5937500000,163420.7343750000,160216.1718750000,129887.1406250000,117985.9687500000,129571.3671875000,146338.3906250000,,,
0.1439999996,1,178514.5468750000,186150.2656250000,162901.5937500000,159495.0000000000,129206.8515625000,117319.9218750000,128840.9765625000,147769.8125000000,,,
0.1479999996,1,178486.2812500000,200018.9531250000,162683.6718750000,159147.6093750000,128912.7734375000,116999.7421875000,128491.2656250000,149519.0937500000,,,
0.1519999998,1,178592.7343750000,203727.7031250000,162991.3437500000,159563.6406250000,129301.8828125000,117366.0546875000,128888.9062500000,149215.1093750000,,,
0.1559999997,1,178711.6093750000,193792.3906250000,163442.4687500000,160190.8281250000,129890.3046875000,117928.2421875000,129512.6015625000,147449.1718750000,,,
0.1599999997,1,178647.4062500000,181896.9218750000,163426.5625000000,160223.5000000000,129904.3125000000,117961.0234375000,129551.3281250000,146343.5937500000,,,
0.1639999996,1,178494.2812500000,186135.2968750000,162877.1093750000,159509.4843750000,129192.1796875000,117278.2890625000,128804.2812500000,147772.5468750000,,,
0.1679999996,1,178476.0937500000,200001.2968750000,162669.9375000000,159154.8750000000,128902.4765625000,116950.7421875000,128463.2890625000,149563.7812500000,,,
0.1719999998,1,178585.3593750000,203840.7812500000,162983.0781250000,159550.6093750000,129299.3359375000,117317.8515625000,128859.1875000000,149288.7656250000,,,
0.1759999997,1,178706.6562500000,193993.3750000000,163429.5937500000,160187.9218750000,129881.7265625000,117890.7187500000,129471.5625000000,147533.4218750000,,,
0.1799999997,1,178647.6406250000,182077.5000000000,163424.6250000000,160223.9218750000,129910.5078125000,117921.6718750000,129510.2109375000,146416.8750000000,,,
0.1839999997,1,178496.5781250000,186197.8750000000,162884.4843750000,159498.5781250000,129206.2343750000,117237.4375000000,128770.8046875000,147804.2500000000,,,
0.1879999996,1,178492.0000000000,200141.0937500000,162678.4375000000,159163.5625000000,128908.3750000000,116931.2968750000,128425.1796875000,149598.0781250000,,,
0.1919999996,1,178597.5468750000,204134.7187500000,162984.5937500000,159561.2031250000,129298.0781250000,117290.0625000000,128813.6718750000,149313.7343750000,,,
0.1959999998,1,178717.1718750000,194445.4843750000,163425.9687500000,160193.2343750000,129890.0390625000,117862.4218750000,129450.1328125000,147558.0781250000,,,
0.1999999997,1,178680.2656250000,182510.1562500000,163440.4531250000,160274.3750000000,129937.2968750000,117918.3984375000,129499.3203125000,146440.6093750000,,,
0.2039999997,1,178551.9375000000,186482.2656250000,162917.7500000000,159586.5156250000,129241.0000000000,117254.2343750000,128769.1171875000,147826.5937500000,,,
0.2079999996,1,178536.5156250000,200418.5781250000,162710.9531250000,159227.4218750000,128938.1484375000,116931.3984375000,128418.8515625000,149617.1250000000,,,
0.2119999996,1,178620.6562500000,204485.2656250000,162994.3281250000,159566.8593750000,129306.6562500000,117279.6875000000,128792.8281250000,149331.4687500000,,,
0.2159999998,1,178696.9375000000,194818.6250000000,163384.8750000000,160131.4218750000,129853.9140625000,117825.2734375000,129386.5859375000,147532.6718750000,,,
0.2199999997,1,178634.4218750000,182748.4687500000,163385.1250000000,160190.6406250000,129891.5703125000,117856.8437500000,129440.4453125000,146347.3593750000,,,
0.2239999997,1,178505.9687500000,186521.0625000000,162881.7812500000,159499.9687500000,129215.3281250000,117215.6640625000,128723.7578125000,147734.8593750000,,,
0.2279999997,1,178493.8437500000,200456.2343750000,162672.5468750000,159139.0312500000,128903.7890625000,116899.2109375000,128372.2578125000,149586.8437500000,,,
0.2319999996,1,178603.7031250000,204634.3125000000,162975.5000000000,159523.6718750000,129290.6484375000,117255.5703125000,128774.3515625000,149350.6718750000,,,
0.2359999996,1,178716.2031250000,195004.2656250000,163397.6718750000,160146.0781250000,129867.5859375000,117822.9921875000,129378.2187500000,147584.9218750000,,,
0.2399999998,1,178676.7968750000,182751.6406250000,163417.8437500000,160233.5312500000,129930.7031250000,117880.4453125000,129458.6875000000,146408.3750000000,,,
0.2439999997,1,178539.9062500000,186292.8750000000,162911.7968750000,159529.0468750000,129248.6406250000,117205.2031250000,128736.1250000000,147770.9062500000,,,
0.2479999997,1,178515.5937500000,200250.5000000000,162671.6875000000,159146.1093750000,128902.2656250000,116880.4140625000,128342.7031250000,149624.5312500000,,,
0.2519999996,1,178623.0468750000,204544.8906250000,162970.8750000000,159526.2812500000,129287.3437500000,117236.2109375000,128742.1875000000,149399.4062500000,,,
0.2559999996,2,178730.1718750000,194974.6562500000,163394.3437500000,160152.3906250000,129869.4375000000,117795.9609375000,129364.8359375000,147617.3593750000,,,
0.2599999995,2,178685.5937500000,182658.0625000000,163411.8593750000,160240.9843750000,129929.3359375000,117865.0546875000,129446.3203125000,146411.2656250000,,,
0.2639999995,2,178571.3281250000,186137.5000000000,162929.5156250000,159541.7031250000,129268.8437500000,117242.7265625000,128743.7968750000,147793.5937500000,,,
0.2679999995,2,178550.8437500000,200231.8593750000,162693.5937500000,159159.3281250000,128925.3593750000,116902.7265625000,128356.3281250000,149666.1093750000,,,
0.2719999994,2,178611.4687500000,204667.1406250000,162940.8125000000,159522.0156250000,129258.4296875000,117203.5625000000,128702.2734375000,149399.0937500000,,,
0.2759999994,2,178721.6406250000,195159.5625000000,163375.7031250000,160157.6250000000,129848.2265625000,117782.5468750000,129321.8437500000,147614.7968750000,,,
0.2799999996,2,178675.7500000000,182780.6562500000,163398.7968750000,160257.3750000000,129916.3515625000,117852.6093750000,129410.1093750000,146400.7031250000,,,
0.2839999995,2,178525.9531250000,186090.4531250000,162877.4062500000,159539.6406250000,129222.4921875000,117193.6171875000,128686.5078125000,147740.5781250000,,,
0.2879999995,2,178505.8906250000,200233.9375000000,162648.0781250000,159142.8125000000,128885.8984375000,116857.6640625000,128316.7890625000,149640.7812500000,,,
0.2919999994,2,178619.1093750000,204843.7031250000,162951.8437500000,159527.0781250000,129273.6406250000,117218.8281250000,128708.6640625000,149455.3593750000,,,
0.2959999994,2,178719.4531250000,195426.3593750000,163370.3125000000,160150.6718750000,129850.8281250000,117772.0625000000,129323.6875000000,147656.0312500000,,,
0.2999999996,2,178672.3437500000,182981.0781250000,163395.2031250000,160245.3593750000,129923.2734375000,117853.6250000000,129414.3750000000,146404.4375000000,,,
0.3039999995,2,178549.0000000000,186165.2812500000,162899.0468750000,159550.0156250000,129253.7421875000,117219.3359375000,128705.6562500000,147758.2500000000,,,
0.3079999995,2,178539.0156250000,200358.2500000000,162676.0781250000,159149.9375000000,128920.6093750000,116883.6562500000,128332.1328125000,149685.3281250000,,,
0.3119999995,2,178649.5000000000,205113.8906250000,162969.9218750000,159535.2343750000,129293.5468750000,117226.0390625000,128710.0000000000,149499.1875000000,,,
0.3159999994,2,178754.6093750000,195781.0625000000,163404.7343750000,160165.1093750000,129883.4453125000,117789.4375000000,129348.8203125000,147689.5000000000,,,
0.3199999994,2,178701.2343750000,183198.0156250000,163425.4843750000,160255.4062500000,129955.8359375000,117876.6093750000,129444.2812500000,146411.0625000000,,,
0.3239999996,2,178558.3750000000,186215.7187500000,162908.5781250000,159543.2343750000,129268.2265625000,117207.9375000000,128725.9062500000,147734.8593750000,,,
0.3279999995,2,178540.0937500000,200505.7500000000,162667.0156250000,159115.0781250000,128912.5859375000,116848.6562500000,128318.9062500000,149684.6093750000,,,
0.3319999995,2,178642.4062500000,205395.7656250000,162955.2968750000,159486.2656250000,129280.6406250000,117191.1484375000,128699.9140625000,149500.9062500000,,,
0.3359999994,2,178750.0468750000,196048.6093750000,163398.1250000000,160135.5468750000,129881.9921875000,117770.3984375000,129347.4296875000,147676.7343750000,,,
0.3399999994,2,178714.1875000000,183281.2187500000,163444.6718750000,160266.4062500000,129977.1015625000,117880.4765625000,129464.6406250000,146378.9218750000,,,
0.3439999996,2,178589.2187500000,186149.2500000000,162936.2812500000,159570.9062500000,129295.3125000000,117239.1328125000,128740.2578125000,147722.2187500000,,,
0.3479999995,2,178558.0000000000,200574.2031250000,162671.2500000000,159138.5937500000,128916.2343750000,116839.9140625000,128320.1406250000,149701.1406250000,,,
0.3519999995,2,178675.2656250000,205632.0156250000,162987.2656250000,159515.6875000000,129310.7109375000,117196.6953125000,128718.7968750000,149550.2343750000,,,
0.3559999994,2,178797.8750000000,196256.7812500000,163449.5000000000,160189.3437500000,129930.0078125000,117812.8593750000,129390.6640625000,147718.6250000000,,,
0.3599999994,2,178742.4531250000,183238.5625000000,163479.9375000000,160316.5937500000,130011.4062500000,117913.7890625000,129504.7421875000,146363.2031250000,,,
0.3639999994,2,178606.1562500000,185910.5625000000,162963.8750000000,159594.9218750000,129323.4531250000,117246.1562500000,128776.0625000000,147690.9218750000,,,
0.3679999996,2,178566.3750000000,200416.1406250000,162677.5000000000,159152.4062500000,128917.3906250000,116851.2812500000,128313.2500000000,149697.1406250000,,,
0.3719999995,2,178654.1406250000,205573.8125000000,162957.1562500000,159519.2343750000,129277.6406250000,117186.9062500000,128682.0781250000,149534.5937500000,,,
0.3759999995,2,178756.7031250000,196245.4843750000,163411.2968750000,160169.2656250000,129891.4843750000,117776.4609375000,129337.0468750000,147686.4687500000,,,
0.3799999994,2,178712.8281250000,183197.7968750000,163459.4218750000,160309.9218750000,129994.7500000000,117889.8359375000,129465.7109375000,146334.5312500000,,,
0.3839999994,3,178586.8125000000,185744.2343750000,162942.5312500000,159603.7500000000,129311.5390625000,117233.5000000000,128747.2343750000,147654.2656250000,,,
0.3879999993,3,178564.2812500000,200306.0000000000,162668.3750000000,159142.5156250000,128919.6718750000,116848.3828125000,128304.2343750000,149691.0156250000,,,
0.3919999993,3,178668.3750000000,205639.4687500000,162967.1562500000,159504.5781250000,129294.5078125000,117189.5937500000,128683.1796875000,149565.3906250000,,,
0.3959999993,3,178780.8437500000,196441.5625000000,163431.9531250000,160175.5937500000,129918.7968750000,117792.7890625000,129353.1171875000,147733.8906250000,,,
0.3999999992,3,178747.6562500000,183330.0625000000,163497.8281250000,160335.2031250000,130040.1640625000,117923.3593750000,129501.6562500000,146367.5000000000,,,
0.4039999992,3,178604.7343750000,185699.3593750000,162967.3750000000,159611.5468750000,129340.9140625000,117254.3125000000,128761.8203125000,147646.5312500000,,,
0.4079999994,3,178558.9375000000,200259.2812500000,162665.7812500000,159131.9375000000,128918.4062500000,116827.4687500000,128290.0781250000,149669.0312500000,,,
0.4119999993,3,178684.6093750000,205720.7656250000,162984.8750000000,159518.9843750000,129310.7343750000,117180.8437500000,128689.2968750000,149581.7968750000,,,
0.4159999993,3,178789.0781250000,196635.4843750000,163430.6718750000,160187.5781250000,129915.7343750000,117779.7265625000,129345.1718750000,147754.5000000000,,,
0.4199999992,3,178738.8125000000,183433.9375000000,163482.8281250000,160332.3125000000,130026.7500000000,117901.9609375000,129479.4453125000,146350.4062500000,,,
0.4239999992,3,178604.2656250000,185628.1406250000,162965.1718750000,159620.6718750000,129345.2031250000,117251.1484375000,128757.9062500000,147611.3437500000,,,
0.4279999994,3,178586.2500000000,200195.2500000000,162689.5468750000,159154.6875000000,128947.2421875000,116852.1171875000,128309.2812500000,149675.1718750000,,,
0.4319999993,3,178685.0000000000,205777.0625000000,162979.7031250000,159508.7968750000,129307.3281250000,117170.2812500000,128683.1250000000,149589.7968750000,,,
0.4359999993,3,178787.4687500000,196807.2812500000,163432.6718750000,160170.5937500000,129914.9609375000,117763.0234375000,129342.7343750000,147769.3281250000,,,
0.4399999992,3,178744.9531250000,183599.6250000000,163493.0000000000,160325.4687500000,130034.7968750000,117905.7421875000,129480.3046875000,146363.0468750000,,,
0.4439999992,3,178616.7500000000,185623.0000000000,162986.9531250000,159639.3906250000,129367.1953125000,117260.8046875000,128773.7812500000,147602.3281250000,,,
0.4479999992,3,178594.5625000000,200162.0000000000,162694.7500000000,159163.0625000000,128955.0781250000,116846.4531250000,128312.3125000000,149668.2031250000,,,
0.4519999993,3,178694.7968750000,205849.5937500000,162978.3593750000,159518.5781250000,129304.4609375000,117169.7187500000,128667.6796875000,149606.6718750000,,,
0.4559999993,3,178785.4843750000,196989.2031250000,163414.2500000000,160177.1406250000,129898.7578125000,117752.3203125000,129310.2031250000,147793.0937500000,,,
0.4599999993,3,178750.4218750000,183750.6250000000,163488.5156250000,160338.8281250000,130029.4609375000,117901.6328125000,129464.4531250000,146380.5312500000,,,
0.4639999992,3,178610.9531250000,185600.7656250000,162973.6250000000,159640.8437500000,129357.1093750000,117248.3828125000,128748.1718750000,147577.4375000000,,,
0.4679999992,3,178583.2187500000,200090.9218750000,162677.3906250000,159162.4687500000,128942.1718750000,116823.5234375000,128286.1562500000,149635.6406250000,,,
0.4719999994,3,178694.3437500000,205886.3593750000,162969.5937500000,159510.0000000000,129303.7890625000,117163.4375000000,128652.9218750000,149610.2343750000,,,
0.4759999993,3,178818.2812500000,197152.0156250000,163447.5156250000,160185.7812500000,129931.3984375000,117786.6250000000,129325.5390625000,147845.6406250000,,,
0.4799999993,3,178776.6562500000,183918.1562500000,163520.8906250000,160351.0625000000,130062.8281250000,117914.4843750000,129486.0468750000,146420.2812500000,,,
0.4839999992,3,178621.2187500000,185568.6093750000,162992.2343750000,159641.6406250000,129381.5234375000,117262.5234375000,128761.9296875000,147573.7656250000,,,
0.4879999992,3,178578.8125000000,200024.0156250000,162672.3437500000,159150.3906250000,128942.9218750000,116822.6875000000,128270.5468750000,149630.2500000000,,,
0.4919999992,3,178680.5781250000,205932.3593750000,162952.3750000000,159483.7656250000,129290.9140625000,117144.6875000000,128631.6562500000,149611.4062500000,,,
0.4959999993,3,178814.0156250000,197350.5000000000,163442.9843750000,160164.8593750000,129929.3046875000,117765.0312500000,129317.6562500000,147858.9687500000,,,
0.4999999993,3,178773.9687500000,184048.2656250000,163521.8906250000,160358.2812500000,130069.0468750000,117914.5390625000,129485.3515625000,146408.5000000000,,,
0.5039999993,3,178637.7968750000,185517.6875000000,163009.6875000000,159673.2343750000,129408.0468750000,117286.6328125000,128786.3671875000,147552.7968750000,,,
0.5079999992,3,178585.7656250000,199942.5625000000,162679.0625000000,159149.7187500000,128958.7265625000,116835.4609375000,128290.4765625000,149609.7187500000,,,
0.5119999992,4,178675.4062500000,205963.8281250000,162943.7656250000,159475.2187500000,129289.2265625000,117141.8984375000,128631.4140625000,149613.5625000000,,,
0.5159999991,4,178789.1875000000,197467.1250000000,163415.8593750000,160137.0468750000,129907.4453125000,117746.0703125000,129297.7578125000,147852.6875000000,,,
0.5199999991,4,178759.1718750000,184122.5625000000,163514.8906250000,160326.1718750000,130064.3046875000,117911.1328125000,129485.0546875000,146389.9218750000,,,
0.5239999990,4,178631.5312500000,185420.1718750000,163017.9062500000,159657.5468750000,129415.6093750000,117277.6718750000,128795.6953125000,147509.9218750000,,,
0.5279999990,4,178591.0156250000,199839.2500000000,162684.8281250000,159171.3437500000,128963.8984375000,116827.3281250000,128282.8828125000,149590.2031250000,,,
0.5319999990,4,178693.3437500000,205965.8906250000,162958.1875000000,159498.2187500000,129304.7265625000,117155.0703125000,128631.0078125000,149630.6250000000,,,
0.5359999991,4,178813.3437500000,197536.5937500000,163436.1718750000,160166.6562500000,129926.3593750000,117750.6562500000,129294.1093750000,147881.1718750000,,,
0.5399999991,4,178769.0156250000,184172.5625000000,163520.1250000000,160353.7187500000,130071.2734375000,117909.5234375000,129469.7343750000,146394.6875000000,,,
0.5439999991,4,178619.8906250000,185298.8593750000,163000.5000000000,159655.9375000000,129406.7343750000,117273.2734375000,128774.4531250000,147481.3593750000,,,
0.5479999990,4,178584.8750000000,199715.0625000000,162676.7812500000,159156.9062500000,128963.5546875000,116820.7578125000,128272.3437500000,149585.6718750000,,,
0.5519999990,4,178694.7187500000,205962.2500000000,162958.7343750000,159499.1562500000,129311.4843750000,117141.5781250000,128624.3046875000,149651.5468750000,,,
0.5559999992,4,178818.7187500000,197616.2031250000,163443.0625000000,160154.7968750000,129940.9218750000,117752.9921875000,129301.0234375000,147909.4375000000,,,
0.5599999991,4,178767.8125000000,184218.5937500000,163522.3750000000,160330.4843750000,130082.1406250000,117914.5390625000,129473.3593750000,146404.4531250000,,,
0.5639999991,4,178630.5781250000,185196.5312500000,163020.6093750000,159664.9218750000,129434.0078125000,117289.3984375000,128785.9921875000,147476.8281250000,,,
0.5679999990,4,178602.3125000000,199610.3125000000,162695.5312500000,159175.0781250000,128986.4062500000,116833.8203125000,128281.3828125000,149593.9531250000,,,
0.5719999990,4,178693.1562500000,205967.6875000000,162953.0781250000,159481.8437500000,129307.6015625000,117124.6562500000,128609.5000000000,149656.8437500000,,,
0.5759999990,4,178810.1562500000,197743.5000000000,163426.3281250000,160127.0937500000,129925.6328125000,117727.1562500000,129279.7578125000,147914.1406250000,,,
0.5799999991,4,178765.5000000000,184286.0781250000,163516.6875000000,160318.2343750000,130078.2500000000,117891.1796875000,129456.1406250000,146389.4375000000,,,
0.5839999991,4,178629.0625000000,185086.1562500000,163021.7656250000,159660.9531250000,129437.8750000000,117275.5859375000,128777.7265625000,147441.5625000000,,,
0.5879999991,4,178579.8437500000,199512.7656250000,162675.5156250000,159140.8281250000,128967.4140625000,116795.0625000000,128247.1875000000,149565.0937500000,,,
0.5919999990,4,178671.6718750000,206015.0625000000,162931.2968750000,159455.3906250000,129286.2500000000,117099.8671875000,128568.0078125000,149658.3281250000,,,
0.5959999990,4,178791.7343750000,197889.5468750000,163411.8125000000,160119.5625000000,129910.9609375000,117715.5468750000,129246.0937500000,147921.7812500000,,,
0.5999999992,4,178763.6250000000,184357.3437500000,163527.3125000000,160338.1562500000,130092.2265625000,117910.4843750000,129457.4531250000,146391.4531250000,,,
0.6039999991,4,178624.3593750000,185003.7343750000,163022.6406250000,159684.5000000000,129447.7421875000,117293.6640625000,128774.5859375000,147428.8125000000,,,
0.6079999991,4,178585.7343750000,199433.5000000000,162680.5781250000,159165.5781250000,128981.5234375000,116826.0937500000,128249.8671875000,149577.7500000000,,,
0.6119999990,4,178675.9375000000,206047.6718750000,162934.7500000000,159464.6093750000,129295.2031250000,117108.2421875000,128571.1171875000,149677.6562500000,,,
0.6159999990,4,178797.5000000000,198030.1718750000,163412.6875000000,160125.8906250000,129913.4531250000,117718.7890625000,129236.3828125000,147946.4843750000,,,
0.6199999989,4,178760.3281250000,184440.3281250000,163524.5468750000,160345.2656250000,130088.5468750000,117893.7500000000,129439.2421875000,146380.9843750000,,,
0.6239999991,4,178617.6250000000,184904.2187500000,163025.4687500000,159685.0937500000,129448.0937500000,117273.5703125000,128766.7031250000,147383.4843750000,,,
0.6279999991,4,178575.2187500000,199330.1562500000,162672.6250000000,159153.0468750000,128969.7187500000,116794.2890625000,128231.4140625000,149542.0468750000,,,
0.6319999991,4,178667.4375000000,206071.5937500000,162923.8281250000,159458.8750000000,129279.9140625000,117074.2265625000,128549.8203125000,149675.3593750000,,,
0.6359999990,4,178796.6718750000,198176.7500000000,163408.9375000000,160120.8750000000,129909.4062500000,117692.8281250000,129224.4765625000,147963.0625000000,,,
0.6399999990,5,178745.2812500000,184529.2812500000,163506.8750000000,160321.9531250000,130079.3515625000,117875.4296875000,129429.4765625000,146370.7187500000,,,
0.6439999989,5,178607.5468750000,184823.4375000000,163016.5000000000,159674.0156250000,129448.9765625000,117271.9375000000,128760.5312500000,147361.5156250000,,,
0.6479999989,5,178560.2343750000,199235.9062500000,162656.2656250000,159137.0937500000,128961.5937500000,116788.5468750000,128213.1250000000,149529.7187500000,,,
0.6519999988,5,178659.9062500000,206110.1406250000,162910.7656250000,159438.9531250000,129273.4531250000,117074.8437500000,128532.9218750000,149683.5312500000,,,
0.6559999988,5,178779.3750000000,198346.2187500000,163385.9531250000,160091.2343750000,129890.6328125000,117685.5546875000,129194.8125000000,147959.8750000000,,,
0.6599999988,5,178743.8750000000,184636.8906250000,163505.5000000000,160330.9687500000,130079.5937500000,117878.0078125000,129413.3828125000,146351.8125000000,,,
0.6639999989,5,178612.0312500000,184757.5781250000,163021.5468750000,159692.6875000000,129454.5312500000,117273.7812500000,128757.3984375000,147333.1250000000,,,
0.6679999989,5,178573.6718750000,199145.7656250000,162670.3125000000,159148.1093750000,128973.1796875000,116789.4609375000,128218.2187500000,149532.3906250000,,,
0.6719999989,5,178648.5781250000,206117.0937500000,162893.3437500000,159428.4843750000,129256.9609375000,117053.9765625000,128505.4531250000,149694.1093750000,,,
0.6759999988,5,178778.7187500000,198424.0000000000,163385.5468750000,160095.5781250000,129893.7109375000,117673.5703125000,129187.0625000000,147985.1093750000,,,
0.6799999988,5,178777.1406250000,184721.1562500000,163545.2187500000,160367.5000000000,130122.6640625000,117908.3437500000,129444.7890625000,146394.9687500000,,,
0.6839999990,5,178621.8125000000,184686.4218750000,163038.1562500000,159715.0781250000,129475.6953125000,117284.5703125000,128760.7500000000,147333.7812500000,,,
0.6879999989,5,178570.6093750000,199065.0312500000,162668.5468750000,159156.2968750000,128973.3671875000,116784.9218750000,128199.4687500000,149528.9687500000,,,
0.6919999989,5,178675.5156250000,206161.4062500000,162926.3593750000,159454.7656250000,129284.9296875000,117068.8671875000,128514.3046875000,149725.9218750000,,,
0.6959999988,5,178789.1875000000,198539.3125000000,163397.6250000000,160105.6718750000,129897.2578125000,117666.2734375000,129174.0468750000,147999.4843750000,,,
0.6999999988,5,178751.0937500000,184815.6250000000,163520.2500000000,160344.4687500000,130094.6406250000,117871.5390625000,129406.3593750000,146369.6093750000,,,
0.7039999987,5,178612.9375000000,184623.4687500000,163034.0468750000,159711.7031250000,129471.3203125000,117267.1875000000,128746.1875000000,147296.9687500000,,,
0.7079999989,5,178571.5000000000,198980.2187500000,162673.2968750000,159134.5937500000,128975.3281250000,116767.3593750000,128198.7734375000,149503.0781250000,,,
0.7119999989,5,178661.5937500000,206191.9218750000,162909.3750000000,159418.0781250000,129264.6328125000,117029.4609375000,128479.1953125000,149710.2187500000,,,
0.7159999989,5,178780.0625000000,198685.5468750000,163382.7343750000,160086.1718750000,129885.1328125000,117640.8984375000,129141.6484375000,148003.9843750000,,,
0.7199999988,5,178768.6093750000,184957.3281250000,163537.2812500000,160355.8281250000,130115.6171875000,117871.9453125000,129403.1640625000,146382.1093750000,,,
0.7239999988,5,178636.5468750000,184601.5625000000,163057.9687500000,159739.6250000000,129503.6953125000,117280.0312500000,128758.1718750000,147291.7343750000,,,
0.7279999990,5,178580.5312500000,198919.7812500000,162671.3281250000,159156.2187500000,128982.7812500000,116766.9296875000,128184.5000000000,149497.5781250000,,,
0.7319999989,5,178659.9062500000,206239.8750000000,162896.1875000000,159414.7343750000,129260.8437500000,117016.1562500000,128469.4843750000,149714.6562500000,,,
0.7359999989,5,178784.6562500000,198869.4843750000,163387.7500000000,160073.8593750000,129894.8125000000,117629.3359375000,129147.8203125000,148014.0000000000,,,
0.7399999988,5,178763.9375000000,185071.2187500000,163539.6093750000,160334.5625000000,130124.1406250000,117871.8125000000,129408.2578125000,146366.2656250000,,,
0.7439999988,5,178620.0781250000,184526.3281250000,163051.7187500000,159714.1406250000,129503.6171875000,117285.2109375000,128752.8359375000,147244.0156250000,,,
0.7479999987,5,178574.3593750000,198797.8281250000,162674.2343750000,159154.0937500000,128985.8437500000,116761.4843750000,128180.5625000000,149458.9843750000,,,
0.7519999989,5,178656.8125000000,206208.5312500000,162899.5156250000,159417.1718750000,129263.0234375000,117007.9531250000,128457.5234375000,149694.6093750000,,,
0.7559999989,5,178785.1875000000,198948.8906250000,163387.2656250000,160090.1406250000,129892.0000000000,117626.9218750000,129129.7109375000,148016.1406250000,,,
0.7599999988,5,178774.2968750000,185164.5625000000,163549.0312500000,160362.5468750000,130132.3750000000,117872.8593750000,129405.1484375000,146368.8437500000,,,
0.7639999988,5,178646.9531250000,184453.2031250000,163084.0937500000,159754.2187500000,129536.3125000000,117294.8906250000,128776.1171875000,147236.7656250000,,,
0.7679999988,6,178602.0000000000,198678.7031250000,162700.9687500000,159184.5625000000,129013.4140625000,116772.6406250000,128189.4921875000,149464.7187500000,,,
0.7719999987,6,178684.8750000000,206208.8437500000,162923.0781250000,159444.4687500000,129284.0781250000,117022.4921875000,128456.9921875000,149724.0937500000,,,
0.7759999987,6,178811.8281250000,199041.9062500000,163412.9687500000,160109.5468750000,129916.0546875000,117633.8437500000,129133.8984375000,148047.7968750000,,,
0.7799999986,6,178796.0000000000,185241.1093750000,163573.0625000000,160379.0156250000,130155.7968750000,117872.7187500000,129400.7265625000,146382.8125000000,,,
0.7839999986,6,178665.5312500000,184376.8437500000,163109.6875000000,159768.9687500000,129562.4062500000,117295.1640625000,128778.2343750000,147225.3437500000,,,
0.7879999985,6,178618.8593750000,198571.7187500000,162724.9531250000,159189.1250000000,129037.2031250000,116766.2578125000,128197.9687500000,149456.7031250000,,,
0.7919999987,6,178681.6875000000,206209.2812500000,162919.6562500000,159433.1250000000,129283.1328125000,116995.5312500000,128438.5625000000,149719.7500000000,,,
0.7959999987,6,178800.4531250000,199168.7500000000,163400.3593750000,160090.1093750000,129905.4609375000,117596.0000000000,129109.7812500000,148048.9218750000,,,
0.7999999986,6,178790.2500000000,185330.5000000000,163570.0625000000,160379.6718750000,130154.6953125000,117847.3750000000,129392.7812500000,146373.7656250000,,,
0.8039999986,6,178658.0000000000,184281.6562500000,163106.4062500000,159774.9218750000,129565.3046875000,117273.0625000000,128767.7500000000,147187.7343750000,,,
0.8079999986,6,178612.5937500000,198423.5468750000,162718.7500000000,159189.9531250000,129037.4453125000,116739.4062500000,128177.8515625000,149425.9687500000,,,
0.8119999988,6,178692.4843750000,206167.2500000000,162933.0312500000,159428.8906250000,129300.7578125000,116968.9531250000,128437.6250000000,149719.9062500000,,,
0.8159999987,6,178813.5625000000,199250.6875000000,163408.0000000000,160088.0468750000,129917.3984375000,117573.2500000000,129099.2968750000,148065.0937500000,,,
0.8199999987,6,178799.4843750000,185384.3125000000,163576.3906250000,160379.5781250000,130167.7812500000,117816.5546875000,129387.4218750000,146372.6406250000,,,
0.8239999986,6,178660.6562500000,184161.7343750000,163110.7812500000,159777.6250000000,129575.8750000000,117251.7656250000,128766.7812500000,147159.2500000000,,,
0.8279999986,6,178608.9375000000,198284.9531250000,162712.5000000000,159183.6875000000,129032.9140625000,116712.3203125000,128161.2187500000,149399.8750000000,,,
0.8319999985,6,178692.9687500000,206160.3281250000,162929.8437500000,159431.7031250000,129294.5390625000,116947.2812500000,128420.0546875000,149724.7031250000,,,
0.8359999987,6,178808.7343750000,199359.2656250000,163404.8593750000,160089.8437500000,129909.8046875000,117550.4843750000,129082.8281250000,148076.3593750000,,,
0.8399999987,6,178797.9843750000,185469.8906250000,163583.8437500000,160387.8281250000,130170.3828125000,117810.6328125000,129378.2500000000,146373.5312500000,,,
0.8439999986,6,178660.7031250000,184061.5000000000,163123.0625000000,159792.4375000000,129583.9765625000,117250.1796875000,128755.3593750000,147132.0937500000,,,
0.8479999986,6,178606.4218750000,198140.8125000000,162716.4687500000,159198.7031250000,129034.7343750000,116707.0625000000,128152.5546875000,149380.9843750000,,,
0.8519999986,6,178698.6093750000,206133.1250000000,162930.7812500000,159454.0781250000,129293.3828125000,116931.2421875000,128407.3671875000,149725.0625000000,,,
0.8559999987,6,178834.1406250000,199426.0156250000,163419.9843750000,160110.5000000000,129923.9140625000,117554.8515625000,129083.7968750000,148099.4218750000,,,
0.8599999987,6,178808.0937500000,185509.4843750000,163582.5625000000,160384.2968750000,130170.4921875000,117801.8046875000,129364.9687500000,146371.6250000000,,,
0.8639999987,6,178654.6718750000,183937.6875000000,163109.5468750000,159781.3281250000,129574.2109375000,117238.0859375000,128740.5000000000,147097.2968750000,,,
0.8679999986,6,178599.3593750000,197981.0937500000,162705.0000000000,159180.1093750000,129023.6875000000,116694.1875000000,128134.0781250000,149352.4687500000,,,
0.8719999986,6,178696.8125000000,206088.5312500000,162928.9531250000,159419.7656250000,129288.7421875000,116937.8906250000,128398.8671875000,149730.5625000000,,,
0.8759999985,6,178827.4843750000,199531.6562500000,163415.0312500000,160084.3437500000,129916.0312500000,117539.9375000000,129070.7578125000,148118.7343750000,,,
0.8799999987,6,178819.3125000000,185612.5937500000,163597.3906250000,160396.0625000000,130185.9375000000,117814.3593750000,129374.4921875000,146388.8125000000,,,
0.8839999987,6,178667.7656250000,183862.0468750000,163130.3437500000,159807.8281250000,129596.4453125000,117245.7578125000,128753.7187500000,147079.4687500000,,,
0.8879999986,6,178604.2500000000,197863.0000000000,162713.3906250000,159186.2500000000,129033.6875000000,116682.9218750000,128133.1093750000,149333.8593750000,,,
0.8919999986,6,178681.6875000000,206091.2343750000,162908.8906250000,159403.3281250000,129273.1328125000,116897.7656250000,128367.0000000000,149715.6718750000,,,
0.8959999986,7,178822.8437500000,199661.6250000000,163403.1718750000,160085.1406250000,129908.3828125000,117517.8125000000,129044.5000000000,148123.0000000000,,,
0.8999999985,7,178822.5000000000,185707.1875000000,163600.1562500000,160403.1718750000,130188.9687500000,117798.5078125000,129363.0625000000,146385.7031250000,,,
0.9039999985,7,178678.9218750000,183795.2343750000,163150.9062500000,159811.1875000000,129616.1328125000,117243.7421875000,128762.8437500000,147061.1718750000,,,
0.9079999984,7,178616.4531250000,197757.1718750000,162725.5156250000,159199.7812500000,129044.1250000000,116678.6328125000,128130.0546875000,149321.6562500000,,,
0.9119999984,7,178693.5312500000,206103.7031250000,162919.7812500000,159416.6562500000,129280.6406250000,116884.3828125000,128361.8203125000,149721.1406250000,,,
0.9159999983,7,178825.3437500000,199760.2500000000,163407.0625000000,160084.3437500000,129907.1250000000,117495.1484375000,129033.1796875000,148126.5156250000,,,
0.9199999985,7,178805.2031250000,185784.6875000000,163587.5156250000,160395.1250000000,130175.2890625000,117755.4531250000,129334.9843750000,146362.9375000000,,,
0.9239999985,7,178649.5468750000,183708.5937500000,163123.3437500000,159821.0312500000,129591.8281250000,117209.4375000000,128723.5703125000,147007.3437500000,,,
0.9279999984,7,178584.5312500000,197629.9062500000,162699.3125000000,159194.5156250000,129020.1171875000,116649.7968750000,128095.1328125000,149271.9531250000,,,
0.9319999984,7,178673.4687500000,206077.6875000000,162905.7500000000,159421.2500000000,129265.7578125000,116872.6093750000,128337.9531250000,149708.7031250000,,,
0.9359999984,7,178822.3906250000,199876.2656250000,163407.9531250000,160096.1406250000,129907.5546875000,117496.6484375000,129023.8203125000,148146.6093750000,,,
0.9399999985,7,178833.8437500000,185936.1718750000,163622.6250000000,160429.0625000000,130210.6406250000,117800.3046875000,129363.5781250000,146405.6093750000,,,
0.9439999985,7,178690.4218750000,183694.7812500000,163171.0781250000,159849.0625000000,129644.4531250000,117263.7265625000,128767.6953125000,147033.0625000000,,,
0.9479999985,7,178625.7031250000,197527.2656250000,162740.0781250000,159205.2500000000,129064.0234375000,116687.3984375000,128126.8359375000,149292.6250000000,,,
0.9519999984,7,178696.6406250000,206094.5000000000,162920.8281250000,159418.5625000000,129282.1953125000,116879.6093750000,128341.1171875000,149731.1406250000,,,
0.9559999984,7,178833.7968750000,200075.5937500000,163407.6718750000,160084.2031250000,129908.0625000000,117490.2421875000,129013.6015625000,148178.7187500000,,,
0.9599999983,7,178832.8437500000,186097.7031250000,163614.6718750000,160422.7031250000,130205.3906250000,117789.7890625000,129351.2656250000,146405.2656250000,,,
0.9639999985,7,178696.5156250000,183648.4375000000,163181.5625000000,159870.6250000000,129655.6953125000,117269.6562500000,128775.9062500000,147008.2500000000,,,
0.9679999985,7,178627.9843750000,197426.2812500000,162746.3593750000,159235.0156250000,129070.4375000000,116687.7187500000,128130.3203125000,149270.0000000000,,,
0.9719999984,7,178704.2656250000,206093.8281250000,162929.3906250000,159438.6875000000,129290.4062500000,116883.9296875000,128344.4453125000,149737.8750000000,,,
0.9759999984,7,178829.2500000000,200173.7968750000,163402.7656250000,160069.6718750000,129900.7187500000,117481.4687500000,129002.4140625000,148186.0000000000,,,
0.9799999984,7,178828.6875000000,186173.5781250000,163612.4375000000,160415.0312500000,130200.6093750000,117789.3359375000,129339.0312500000,146400.5625000000,,,
0.9839999985,7,178693.5156250000,183562.1250000000,163182.5937500000,159864.0000000000,129657.3281250000,117273.6484375000,128769.7578125000,146977.7812500000,,,
0.9879999985,7,178637.6093750000,197295.5156250000,162755.7968750000,159238.2968750000,129075.5312500000,116697.3281250000,128128.5546875000,149251.1406250000,,,
0.9919999985,7,178706.7812500000,206086.0625000000,162926.2187500000,159425.8593750000,129280.9921875000,116879.2031250000,128327.7890625000,149734.6875000000,,,
0.9959999984,7,178832.8437500000,200263.6562500000,163402.9062500000,160073.4843750000,129897.7890625000,117474.6328125000,128989.7578125000,148194.7812500000,,,
0.9999999984,7,178833.6093750000,186282.4218750000,163618.7656250000,160419.4843750000,130207.6640625000,117792.5234375000,129336.3750000000,146407.5468750000,,,
1.0039999983,7,178686.5312500000,183518.0000000000,163185.1875000000,159863.4062500000,129661.5703125000,117273.1953125000,128767.3437500000,146948.7031250000,,,
1.0079999985,7,178624.1250000000,197194.0781250000,162752.7968750000,159217.5000000000,129073.5234375000,116685.7343750000,128124.0156250000,149218.2500000000,,,
1.0119999985,7,178703.1093750000,206097.2968750000,162928.4687500000,159407.9218750000,129282.8437500000,116865.3359375000,128326.0937500000,149731.9843750000,,,
1.0159999984,7,178830.7812500000,200468.6718750000,163400.3906250000,160060.3906250000,129893.4765625000,117466.5312500000,128982.2187500000,148217.3906250000,,,
1.0199999984,7,178820.3281250000,186433.7500000000,163607.7656250000,160411.7812500000,130197.2578125000,117770.8281250000,129325.9453125000,146398.8437500000,,,
1.0239999983,8,178678.7656250000,183466.9531250000,163180.9843750000,159866.7031250000,129660.7109375000,117263.2968750000,128766.3515625000,146916.7656250000,,,
1.0279999983,8,178614.7812500000,197101.6718750000,162739.7343750000,159217.1562500000,129063.5156250000,116671.7890625000,128109.3984375000,149199.6093750000,,,
1.0319999983,8,178691.5468750000,206124.1093750000,162910.3906250000,159399.1250000000,129267.5234375000,116857.8281250000,128308.0468750000,149738.1718750000,,,
1.0359999982,8,178831.1562500000,200569.8281250000,163397.4843750000,160058.8125000000,129892.9062500000,117467.2265625000,128977.7656250000,148238.3125000000,,,
1.0399999982,8,178830.2031250000,186556.5937500000,163621.6093750000,160416.6406250000,130212.0390625000,117785.0390625000,129333.3437500000,146421.9687500000,,,
1.0439999981,8,178691.6093750000,183447.9375000000,163205.7343750000,159888.4062500000,129686.4296875000,117281.3515625000,128784.2421875000,146918.9375000000,,,
1.0479999983,8,178615.3281250000,197020.7031250000,162747.6875000000,159225.2343750000,129071.6718750000,116677.2109375000,128109.6718750000,149184.3750000000,,,
1.0519999983,8,178683.5312500000,206128.1093750000,162909.3593750000,159397.9062500000,129265.6718750000,116841.5468750000,128297.2109375000,149726.8593750000,,,
1.0559999982,8,178819.0312500000,200600.0468750000,163394.1093750000,160059.2968750000,129889.0703125000,117449.3593750000,128966.9062500000,148218.1718750000,,,
1.0599999982,8,178826.7968750000,186572.6875000000,163620.4843750000,160425.9531250000,130212.2500000000,117774.5546875000,129333.2109375000,146403.7343750000,,,
1.0639999982,8,178693.0468750000,183343.3125000000,163206.2500000000,159892.8593750000,129690.5078125000,117279.7421875000,128789.6875000000,146886.5000000000,,,
1.0679999983,8,178625.1875000000,196884.3906250000,162752.3281250000,159234.6718750000,129078.6953125000,116671.8984375000,128113.3437500000,149166.9375000000,,,
1.0719999983,8,178690.0781250000,206116.4218750000,162902.0625000000,159402.9218750000,129260.9843750000,116833.4453125000,128287.6328125000,149728.9218750000,,,
1.0759999983,8,178827.7343750000,200819.5156250000,163384.7968750000,160047.3750000000,129878.6953125000,117437.6718750000,128955.1250000000,148247.8125000000,,,
1.0799999982,8,178835.1875000000,186731.5000000000,163622.3437500000,160431.0781250000,130212.7890625000,117779.5156250000,129332.3046875000,146407.1406250000,,,
1.0839999982,8,178700.9687500000,183276.0625000000,163215.0625000000,159912.2500000000,129698.5859375000,117285.1015625000,128793.5546875000,146862.5312500000,,,
1.0879999981,8,178622.4531250000,196776.7812500000,162751.5312500000,159236.3125000000,129074.3281250000,116664.4921875000,128109.2656250000,149144.8906250000,,,
1.0919999983,8,178684.7343750000,206110.3281250000,162901.9687500000,159397.7500000000,129254.0078125000,116820.6562500000,128283.5312500000,149721.1093750000,,,
1.0959999983,8,178814.4843750000,200892.9843750000,163376.2187500000,160046.7656250000,129866.7812500000,117421.1171875000,128946.2265625000,148244.0000000000,,,
1.0999999982,8,178823.5156250000,186818.0000000000,163616.5468750000,160424.3125000000,130208.8203125000,117764.2500000000,129325.6484375000,146399.6562500000,,,
1.1039999982,8,178697.7968750000,183208.2812500000,163221.1562500000,159917.1875000000,129707.0625000000,117282.3125000000,128799.5078125000,146836.0000000000,,,
1.1079999981,8,178633.5937500000,196633.6562500000,162766.5000000000,159252.4062500000,129087.1484375000,116666.9921875000,128115.9453125000,149128.1093750000,,,
1.1119999983,8,178699.6718750000,206060.4375000000,162915.4687500000,159409.5468750000,129262.3515625000,116818.0000000000,128283.2890625000,149730.1562500000,,,
1.1159999983,8,178821.0468750000,200906.4375000000,163382.3281250000,160032.8750000000,129867.8046875000,117410.2265625000,128937.9375000000,148254.9062500000,,,
1.1199999982,8,178826.3281250000,186894.7187500000,163620.0312500000,160404.6718750000,130205.6250000000,117744.1875000000,129317.8671875000,146410.7031250000,,,
1.1239999982,8,178690.2968750000,183163.7656250000,163219.2500000000,159903.6406250000,129702.2343750000,117263.8906250000,128795.2968750000,146808.2656250000,,,
1.1279999982,8,178618.7812500000,196471.1406250000,162756.5156250000,159229.7968750000,129078.0000000000,116651.6718750000,128115.1718750000,149083.2343750000,,,
1.1319999981,8,178687.2031250000,206021.6562500000,162902.4062500000,159373.6093750000,129248.8593750000,116806.1406250000,128276.0234375000,149720.3437500000,,,
1.1359999983,8,178816.8906250000,201205.0468750000,163367.0468750000,160015.3593750000,129848.2500000000,117383.0078125000,128920.0156250000,148288.2500000000,,,
1.1399999983,8,178830.1718750000,187129.4531250000,163620.8906250000,160425.9218750000,130206.9453125000,117744.6484375000,129320.9843750000,146419.1562500000,,,
1.1439999982,8,178695.5156250000,183120.3125000000,163224.6250000000,159935.2656250000,129710.2500000000,117274.9921875000,128801.0078125000,146782.5625000000,,,
1.1479999982,8,178635.7031250000,196369.6250000000,162771.6718750000,159252.6406250000,129093.2109375000,116665.1953125000,128123.2109375000,149074.6250000000,,,
1.1519999981,9,178692.8125000000,206001.2187500000,162903.8281250000,159383.4218750000,129249.8750000000,116792.4375000000,128270.9218750000,149712.9687500000,,,
1.1559999981,9,178826.3281250000,201197.6562500000,163375.0312500000,160030.1562500000,129855.8125000000,117384.3203125000,128917.7890625000,148286.4843750000,,,
1.1599999981,9,178839.3750000000,187182.7500000000,163625.0781250000,160435.1406250000,130210.4531250000,117746.0156250000,129314.4375000000,146425.9687500000,,,
1.1639999980,9,178707.1562500000,183077.0468750000,163238.9687500000,159944.1093750000,129723.0468750000,117278.9375000000,128810.9062500000,146769.7968750000,,,
1.1679999980,9,178629.9218750000,196245.7343750000,162767.4062500000,159251.6250000000,129088.4062500000,116656.1562500000,128114.8750000000,149047.0000000000,33029,1.1691553982,0.0000000000
1.1719999979,9,178700.9687500000,205972.5156250000,162910.4218750000,159389.3281250000,129256.2031250000,116805.5000000000,128275.2187500000,149723.0781250000,,,
1.1759999981,9,178829.5468750000,201175.1250000000,163380.3437500000,160026.3750000000,129859.0625000000,117392.9296875000,128925.7031250000,148292.3281250000,,,
1.1799999981,9,178856.1250000000,187230.0468750000,163646.0468750000,160421.5468750000,130225.6093750000,117755.6718750000,129335.3046875000,146445.5000000000,,,
1.1839999980,9,178727.8906250000,183051.6250000000,163263.3437500000,159958.0937500000,129747.0546875000,117301.4921875000,128833.0625000000,146773.7968750000,,,
1.1879999980,9,178649.8437500000,196145.7656250000,162789.3437500000,159269.5468750000,129109.3828125000,116674.5781250000,128139.6328125000,149048.8437500000,,,
1.1919999979,9,178702.2812500000,205969.1718750000,162908.5937500000,159384.9062500000,129254.7031250000,116796.5937500000,128275.1328125000,149727.6093750000,,,
1.1959999981,9,178842.4062500000,201281.7656250000,163394.4062500000,160036.5937500000,129874.8281250000,117389.1171875000,128941.4218750000,148315.6718750000,,,
1.1999999981,9,178865.2187500000,187345.9218750000,163660.4843750000,160436.3281250000,130239.2343750000,117754.4609375000,129346.9453125000,146461.6718750000,,,
1.2039999980,9,178719.5000000000,182995.4843750000,163264.2656250000,159973.7500000000,129748.7109375000,117298.3515625000,128838.4531250000,146752.8437500000,,,
1.2079999980,9,178624.2500000000,195995.2343750000,162766.4218750000,159280.9687500000,129087.8437500000,116644.6171875000,128124.4218750000,149000.5625000000,,,
1.2119999980,9,178689.8906250000,205939.3593750000,162894.1093750000,159397.5625000000,129234.1328125000,116769.8750000000,128256.6015625000,149713.8437500000,,,
1.2159999979,9,178826.6875000000,201479.3125000000,163366.9687500000,160024.9843750000,129840.2812500000,117364.9531250000,128905.9375000000,148331.8906250000,,,
1.2199999981,9,178854.9062500000,187508.8125000000,163641.5156250000,160453.0312500000,130219.3906250000,117743.4687500000,129328.8671875000,146458.7500000000,,,
1.2239999981,9,178721.6406250000,182945.5625000000,163266.8437500000,159987.6250000000,129751.4531250000,117290.7343750000,128843.7890625000,146724.8125000000,,,
1.2279999980,9,178639.9687500000,195873.9531250000,162779.7812500000,159270.5625000000,129101.0937500000,116654.8359375000,128131.9843750000,148991.4531250000,,,
1.2319999980,9,178711.0781250000,205922.5156250000,162911.8750000000,159389.2500000000,129254.4609375000,116785.5937500000,128268.1328125000,149737.8593750000,,,
1.2359999979,9,178840.0468750000,201586.0000000000,163379.3593750000,160034.7968750000,129853.7734375000,117368.4921875000,128913.7187500000,148364.4218750000,,,
1.2399999981,9,178854.3281250000,187634.0312500000,163644.7031250000,160449.2812500000,130223.9218750000,117736.4687500000,129336.9687500000,146473.3906250000,,,
1.2439999981,9,178718.3281250000,182904.3125000000,163270.9687500000,159975.2343750000,129756.9218750000,117289.9062500000,128854.2265625000,146699.7656250000,,,
1.2479999980,9,178644.2187500000,195757.4531250000,162788.7343750000,159289.6093750000,129106.0312500000,116656.6875000000,128144.0859375000,148969.0781250000,,,
1.2519999980,9,178710.5156250000,205903.3750000000,162910.3906250000,159396.8125000000,129245.6640625000,116771.9453125000,128272.5312500000,149728.8437500000,,,
1.2559999980,9,178846.0468750000,201667.6562500000,163379.7812500000,160021.6250000000,129847.2031250000,117365.8359375000,128913.7421875000,148369.3906250000,,,
1.2599999979,9,178862.4375000000,187745.2656250000,163646.6718750000,160435.7656250000,130219.7656250000,117731.3125000000,129330.4218750000,146473.8125000000,,,
1.2639999981,9,178726.2812500000,182889.1875000000,163277.7500000000,159982.4218750000,129761.2968750000,117301.0625000000,128854.9765625000,146690.0000000000,,,
1.2679999981,9,178647.8125000000,195652.7968750000,162791.9531250000,159291.2656250000,129108.5546875000,116650.0390625000,128139.1718750000,148953.9218750000,,,
1.2719999980,9,178714.7500000000,205887.6562500000,162913.6093750000,159387.4218750000,129248.1328125000,116763.4921875000,128270.2265625000,149730.0781250000,,,
1.2759999980,9,178850.0156250000,201737.9531250000,163381.9062500000,160006.3437500000,129848.3281250000,117344.4609375000,128911.0859375000,148380.6250000000,,,
1.2799999979,10,178862.9375000000,187847.9687500000,163646.0000000000,160420.2343750000,130218.3437500000,117723.1328125000,129326.8828125000,146482.0468750000,,,
1.2839999979,10,178729.5781250000,182850.6093750000,163288.2968750000,159976.4062500000,129770.7656250000,117301.5468750000,128871.1718750000,146668.2187500000,,,
1.2879999978,10,178649.6562500000,195522.7656250000,162800.3750000000,159274.7656250000,129113.5937500000,116651.5156250000,128154.7812500000,148930.7031250000,,,
1.2919999978,10,178711.5937500000,205852.1875000000,162911.9218750000,159381.5781250000,129242.6875000000,116760.3828125000,128268.9687500000,149728.7031250000,,,
1.2959999978,10,178858.1406250000,201818.2343750000,163390.8281250000,160015.6562500000,129853.9375000000,117354.8671875000,128919.8281250000,148402.3750000000,,,
1.2999999977,10,178882.2500000000,187950.4843750000,163665.4062500000,160443.2187500000,130236.7656250000,117734.7734375000,129348.0703125000,146504.2343750000,,,
1.3039999979,10,178760.9687500000,182825.1093750000,163320.7500000000,160020.6406250000,129806.0859375000,117329.2500000000,128903.8203125000,146683.5468750000,,,
1.3079999979,10,178675.5937500000,195416.1406250000,162821.8281250000,159304.2187500000,129138.9140625000,116664.1484375000,128177.5859375000,148936.2968750000,,,
1.3119999978,10,178730.5781250000,205842.2968750000,162919.0312500000,159386.9375000000,129251.7812500000,116757.7265625000,128275.4531250000,149750.4062500000,,,
1.3159999978,10,178866.3750000000,201966.7187500000,163388.5000000000,160026.3750000000,129851.3125000000,117344.5937500000,128916.7187500000,148436.6562500000,,,
1.3199999977,10,178883.5468750000,188098.6718750000,163667.8281250000,160464.4843750000,130239.2656250000,117732.4687500000,129356.2500000000,146521.0000000000,,,
1.3239999979,10,178747.4218750000,182784.7343750000,163316.5937500000,160029.4843750000,129805.1484375000,117326.7031250000,128912.3203125000,146658.5625000000,,,
1.3279999979,10,178660.0625000000,195291.0156250000,162815.1718750000,159306.7656250000,129137.3828125000,116670.3437500000,128185.7890625000,148917.9843750000,,,
1.3319999978,10,178713.8906250000,205826.1250000000,162906.1093750000,159367.5781250000,129243.9765625000,116750.4609375000,128278.9453125000,149751.9843750000,,,
1.3359999978,10,178861.0937500000,202072.6406250000,163383.7812500000,159999.9531250000,129852.4609375000,117339.1796875000,128927.8750000000,148456.9843750000,,,
1.3399999978,10,178889.6562500000,188221.5781250000,163674.1562500000,160437.9375000000,130251.1718750000,117733.0859375000,129373.9296875000,146541.5781250000,,,
1.3439999977,10,178760.1562500000,182765.2656250000,163329.6875000000,160021.8750000000,129821.2109375000,117327.6406250000,128931.9531250000,146654.6250000000,,,
1.3479999979,10,178677.6093750000,195196.3437500000,162832.5000000000,159303.6093750000,129149.8828125000,116670.6640625000,128198.5546875000,148911.9531250000,,,
1.3519999979,10,178724.6250000000,205823.6562500000,162916.0625000000,159363.2031250000,129244.8593750000,116743.5625000000,128280.2578125000,149759.5312500000,,,
1.3559999978,10,178850.4687500000,202194.5781250000,163370.9375000000,159986.1718750000,129830.9218750000,117313.2109375000,128909.4218750000,148455.2812500000,,,
1.3599999978,10,178884.1562500000,188358.8281250000,163669.9218750000,160450.2968750000,130240.8203125000,117726.2734375000,129366.7421875000,146535.0781250000,,,
1.3639999977,10,178751.5312500000,182739.7031250000,163326.0312500000,160034.5312500000,129818.5078125000,117332.7421875000,128932.2500000000,146626.7656250000,,,
1.3679999979,10,178658.7187500000,195075.2656250000,162815.2343750000,159299.5468750000,129139.1562500000,116663.7187500000,128195.4453125000,148874.7187500000,,,
1.3719999979,10,178716.3125000000,205801.7187500000,162906.8906250000,159371.6718750000,129240.6250000000,116735.4687500000,128285.3515625000,149753.7656250000,,,
1.3759999978,10,178857.0468750000,202321.0937500000,163377.9531250000,159999.9843750000,129839.5312500000,117308.9218750000,128926.3750000000,148481.9843750000,,,
1.3799999978,10,178893.5781250000,188497.9531250000,163681.0000000000,160459.9062500000,130254.9843750000,117729.1953125000,129389.6718750000,146559.5156250000,,,
1.3839999977,10,178758.8750000000,182709.8281250000,163339.0937500000,160046.5156250000,129836.0234375000,117345.0000000000,128958.6406250000,146620.0000000000,,,
1.3879999977,10,178666.4218750000,194948.1562500000,162825.0000000000,159314.1718750000,129151.4687500000,116678.0156250000,128212.7187500000,148867.6562500000,,,
1.3919999979,10,178718.3750000000,205769.8750000000,162906.1562500000,159367.0312500000,129241.8828125000,116742.7343750000,128287.2343750000,149762.4218750000,,,
1.3959999979,10,178858.5937500000,202395.0468750000,163372.7343750000,159994.1406250000,129837.6328125000,117320.6171875000,128927.5859375000,148501.8906250000,,,
1.3999999978,10,178891.7812500000,188604.1875000000,163674.5625000000,160455.0781250000,130249.6953125000,117734.4843750000,129383.9843750000,146566.6562500000,,,
1.4039999978,10,178768.7656250000,182670.2031250000,163354.9531250000,160056.1250000000,129849.4609375000,117353.5234375000,128970.5546875000,146606.2187500000,,,
1.4079999977,11,178664.0000000000,194810.5000000000,162824.0312500000,159311.0937500000,129150.0156250000,116670.2890625000,128213.4687500000,148839.0781250000,,,
1.4119999977,11,178704.9843750000,205722.6093750000,162889.8750000000,159362.3437500000,129227.9921875000,116731.7109375000,128275.8593750000,149751.2968750000,,,
1.4159999976,11,178844.1093750000,202463.7812500000,163355.8281250000,159995.4218750000,129823.2265625000,117314.9296875000,128913.6640625000,148508.7343750000,,,
1.4199999976,11,178882.2031250000,188700.1875000000,163661.6093750000,160465.4062500000,130240.2812500000,117739.7109375000,129379.6953125000,146578.1093750000,,,
1.4239999976,11,178756.2812500000,182634.4843750000,163339.0156250000,160069.4218750000,129840.6328125000,117346.3906250000,128971.7031250000,146589.0000000000,,,
1.4279999975,11,178663.6562500000,194690.0156250000,162823.0156250000,159324.5468750000,129150.6875000000,116666.6953125000,128220.0937500000,148823.0625000000,,,
1.4319999977,11,178720.3281250000,205697.3750000000,162904.2031250000,159365.1093750000,129236.0078125000,116725.3281250000,128285.9453125000,149761.7031250000,,,
1.4359999977,11,178859.2187500000,202559.5625000000,163367.8437500000,159976.4062500000,129827.0859375000,117301.7578125000,128914.0390625000,148525.8906250000,,,
1.4399999976,11,178899.1250000000,188806.6406250000,163681.0468750000,160450.8437500000,130254.2031250000,117734.0000000000,129392.5703125000,146583.7031250000,,,
1.4439999976,11,178772.8750000000,182584.2656250000,163364.1250000000,160067.6562500000,129861.6875000000,117359.1093750000,128991.4453125000,146572.6875000000,,,
1.4479999975,11,178678.2500000000,194541.2656250000,162843.7968750000,159317.3125000000,129168.2265625000,116678.8203125000,128243.4843750000,148807.2343750000,,,
1.4519999977,11,178729.0468750000,205653.2500000000,162911.3906250000,159360.2500000000,129242.1484375000,116740.3203125000,128306.4609375000,149768.8906250000,,,
1.4559999977,11,178868.7343750000,202668.4375000000,163373.3437500000,159978.5781250000,129833.7656250000,117324.5625000000,128949.3906250000,148559.6093750000,,,
1.4599999976,11,178893.3281250000,188942.0937500000,163672.3281250000,160441.8281250000,130248.8671875000,117750.8671875000,129419.3359375000,146603.4218750000,,,
1.4639999976,11,178760.9687500000,182561.6875000000,163351.8906250000,160060.0156250000,129857.3671875000,117396.8984375000,129025.6406250000,146564.6093750000,,,
1.4679999975,11,178692.3281250000,194426.8125000000,162860.4531250000,159330.7812500000,129188.9375000000,116738.3359375000,128303.5703125000,148817.1875000000,,,
1.4719999975,11,178743.5937500000,205623.5937500000,162921.0156250000,159358.5937500000,129256.3671875000,116784.3906250000,128359.8359375000,149798.1718750000,,,
1.4759999977,11,178893.2812500000,202772.1093750000,163396.0156250000,159990.2968750000,129858.1718750000,117372.6015625000,129004.8828125000,148608.4531250000,,,
1.4799999977,11,178935.6875000000,189080.0937500000,163719.0000000000,160476.3437500000,130299.1875000000,117806.4687500000,129498.0859375000,146656.4531250000,,,
1.4839999976,11,178796.9687500000,182545.8281250000,163394.2187500000,160095.0156250000,129906.9921875000,117440.6171875000,129100.0468750000,146583.7968750000,,,
1.4879999976,11,178701.3437500000,194306.7656250000,162869.0937500000,159341.7968750000,129208.7343750000,116759.6328125000,128349.1093750000,148810.1562500000,,,
1.4919999975,11,178755.4375000000,205603.2656250000,162934.4531250000,159363.2343750000,129278.1718750000,116806.9453125000,128403.8828125000,149811.7812500000,,,
1.4959999977,11,178899.8593750000,202842.0625000000,163400.5781250000,159982.5000000000,129872.0703125000,117385.2031250000,129044.6093750000,148626.0156250000,,,
1.4999999977,11,178947.4375000000,189184.7812500000,163731.3125000000,160478.4843750000,130319.6484375000,117828.6250000000,129546.9609375000,146675.3593750000,,,
1.5039999976,11,178819.2500000000,182537.1406250000,163419.5312500000,160113.8437500000,129944.6796875000,117482.6718750000,129169.2500000000,146599.9843750000,,,
1.5079999976,11,178718.1093750000,194196.0937500000,162885.5937500000,159355.7187500000,129234.4296875000,116792.8125000000,128402.9140625000,148817.9843750000,,,
1.5119999975,11,178764.1093750000,205573.5625000000,162941.2187500000,159370.9531250000,129287.6953125000,116823.1718750000,128436.8984375000,149829.3437500000,,,
1.5159999975,11,178899.3437500000,202916.4843750000,163400.2968750000,159981.2968750000,129874.2656250000,117389.3906250000,129063.7343750000,148648.7343750000,,,
1.5199999977,11,178941.6093750000,189281.7500000000,163723.5625000000,160473.9843750000,130316.4609375000,117833.3750000000,129553.5859375000,146692.2500000000,,,
1.5239999976,11,178824.6093750000,182508.0937500000,163429.6406250000,160131.0156250000,129955.7500000000,117497.2968750000,129186.0937500000,146594.2031250000,,,
1.5279999976,11,178721.4531250000,194078.3437500000,162888.4531250000,159373.4687500000,129235.2890625000,116789.9921875000,128406.2968750000,148803.3125000000,,,
1.5319999976,11,178759.2187500000,205548.6562500000,162931.5937500000,159363.8125000000,129273.1875000000,116806.2187500000,128425.0156250000,149828.2968750000,,,
1.5359999975,12,178896.7343750000,203057.5937500000,163389.6250000000,159969.9375000000,129853.2968750000,117365.8671875000,129039.8359375000,148666.5468750000,,,
1.5399999975,12,178949.5312500000,189460.5937500000,163723.7500000000,160469.7187500000,130308.4609375000,117818.8359375000,129533.7656250000,146707.2187500000,,,
1.5439999974,12,178821.3437500000,182494.9218750000,163423.1093750000,160117.2031250000,129946.0468750000,117472.1640625000,129157.2578125000,146567.0000000000,,,
1.5479999974,12,178724.4843750000,193950.4062500000,162892.6718750000,159362.0468750000,129234.9921875000,116760.7578125000,128379.8203125000,148772.9843750000,,,
1.5519999973,12,178772.0468750000,205514.7500000000,162941.8281250000,159369.2031250000,129277.7187500000,116780.0156250000,128394.1171875000,149829.1250000000,,,
1.5559999973,12,178894.1406250000,203132.2500000000,163381.2031250000,159960.6093750000,129842.3203125000,117332.7968750000,128997.3984375000,148670.1406250000,,,
1.5599999975,12,178925.8750000000,189553.0000000000,163699.4218750000,160449.5312500000,130282.1250000000,117772.2734375000,129488.8593750000,146687.5156250000,,,
1.5639999975,12,178797.8437500000,182453.5937500000,163403.9843750000,160110.2187500000,129923.2734375000,117431.9296875000,129126.4921875000,146523.9531250000,,,
1.5679999974,12,178698.4687500000,193798.4218750000,162865.3125000000,159352.4218750000,129204.3359375000,116734.5000000000,128348.0937500000,148727.8906250000,,,
1.5719999974,12,178746.0000000000,205459.7031250000,162907.8281250000,159354.9218750000,129239.0703125000,116752.0156250000,128359.8125000000,149805.0468750000,,,
1.5759999973,12,178874.9687500000,203235.6718750000,163354.8437500000,159956.5000000000,129809.6796875000,117306.8046875000,128969.7968750000,148669.7968750000,,,
1.5799999975,12,178913.3437500000,189683.6250000000,163686.8125000000,160456.7656250000,130265.4140625000,117751.2968750000,129470.2187500000,146685.8750000000,,,
1.5839999975,12,178793.6093750000,182428.2968750000,163406.9062500000,160129.5625000000,129926.9453125000,117425.8671875000,129118.2343750000,146501.3125000000,,,
1.5879999974,12,178708.1562500000,193661.3125000000,162886.9843750000,159370.6250000000,129226.5703125000,116733.1328125000,128355.0078125000,148705.1250000000,,,
1.5919999974,12,178752.5156250000,205404.1250000000,162921.3125000000,159361.9375000000,129255.8828125000,116742.1171875000,128361.8515625000,149808.3125000000,,,
1.5959999973,12,178865.5468750000,203292.4062500000,163344.9218750000,159930.7812500000,129806.4375000000,117280.7031250000,128950.7812500000,148678.4531250000,,,
1.5999999973,12,178911.5156250000,189781.3593750000,163682.6562500000,160441.3906250000,130265.4921875000,117745.0234375000,129459.3593750000,146694.9062500000,,,
1.6039999975,12,178791.3906250000,182379.7812500000,163402.5312500000,160127.9062500000,129926.9218750000,117434.7421875000,129118.1796875000,146488.2187500000,,,
1.6079999974,12,178700.2968750000,193508.0781250000,162871.2656250000,159363.4375000000,129216.5625000000,116731.0703125000,128347.7656250000,148681.5937500000,,,
1.6119999974,12,178749.0781250000,205348.8437500000,162906.5937500000,159353.5000000000,129242.8750000000,116738.1718750000,128351.9531250000,149804.3906250000,,,
1.6159999974,12,178879.2031250000,203356.1875000000,163353.1250000000,159942.1250000000,129812.0937500000,117288.6406250000,128964.3828125000,148697.4843750000,,,
1.6199999973,12,178912.6406250000,189860.2187500000,163687.3593750000,160431.2031250000,130269.5156250000,117748.0000000000,129472.6328125000,146700.2812500000,,,
1.6239999975,12,178784.9531250000,182342.7656250000,163411.6250000000,160103.8750000000,129939.8750000000,117438.6640625000,129138.7500000000,146470.9218750000,,,
1.6279999975,12,178692.7656250000,193380.5937500000,162878.8750000000,159344.1250000000,129227.5312500000,116736.9921875000,128370.6250000000,148668.7812500000,,,
1.6319999974,12,178729.2968750000,205312.5625000000,162896.7656250000,159327.5625000000,129233.8359375000,116725.8125000000,128349.7031250000,149799.4687500000,,,
1.6359999974,12,178867.4531250000,203458.5625000000,163347.8593750000,159920.2187500000,129806.7265625000,117288.8359375000,128959.9843750000,148712.2500000000,,,
1.6399999973,12,178928.6093750000,190002.2656250000,163708.3593750000,160451.5937500000,130291.9140625000,117776.6484375000,129501.5234375000,146726.8593750000,,,
1.6439999973,12,178820.4531250000,182329.7343750000,163453.2812500000,160149.3906250000,129984.7500000000,117481.7890625000,129192.1250000000,146481.1406250000,,,
1.6479999975,12,178723.4375000000,193266.1406250000,162909.7343750000,159372.4218750000,129262.4843750000,116776.8515625000,128415.0156250000,148670.7343750000,,,
1.6519999974,12,178771.2968750000,205283.5625000000,162935.0468750000,159349.2812500000,129277.1015625000,116773.0156250000,128410.9921875000,149835.3750000000,,,
1.6559999974,12,178906.1093750000,203538.8125000000,163384.7187500000,159938.5312500000,129848.4375000000,117327.8593750000,129024.5468750000,148765.0625000000,,,
1.6599999974,12,178946.3593750000,190113.3593750000,163727.1250000000,160460.4375000000,130317.4218750000,117798.5859375000,129545.0000000000,146768.9687500000,,,
1.6639999973,13,178830.7031250000,182317.5468750000,163464.5937500000,160165.5781250000,130004.7031250000,117510.1953125000,129232.2578125000,146497.6875000000,,,
1.6679999973,13,178733.0781250000,193153.7812500000,162915.8750000000,159411.1093750000,129276.0781250000,116799.8671875000,128453.3671875000,148678.7031250000,,,
1.6719999972,13,178766.7812500000,205259.1093750000,162924.4218750000,159360.0312500000,129269.9687500000,116782.1875000000,128426.4375000000,149850.6406250000,,,
1.6759999972,13,178902.9062500000,203618.2968750000,163377.5312500000,159941.2500000000,129841.3046875000,117333.0078125000,129036.6718750000,148785.6718750000,,,
1.6799999971,13,178940.9375000000,190206.6718750000,163719.0781250000,160450.1875000000,130309.4843750000,117805.8281250000,129553.5000000000,146775.4843750000,,,
1.6839999971,13,178805.2968750000,182281.6562500000,163442.4062500000,160137.2812500000,129984.8593750000,117500.8359375000,129224.8515625000,146462.7343750000,,,
1.6879999973,13,178699.5468750000,192990.4687500000,162891.7812500000,159363.1250000000,129252.2890625000,116769.3671875000,128429.6015625000,148620.5000000000,,,
1.6919999972,13,178747.2031250000,205182.2656250000,162912.8125000000,159336.2500000000,129255.6406250000,116748.1015625000,128403.8281250000,149819.7968750000,,,
1.6959999972,13,178887.2656250000,203706.2343750000,163362.4843750000,159922.5468750000,129823.6015625000,117293.7656250000,129007.7265625000,148779.7343750000,,,
1.6999999972,13,178943.5156250000,190344.8906250000,163721.8750000000,160455.6875000000,130308.9218750000,117781.8750000000,129535.2890625000,146779.5625000000,,,
1.7039999971,13,178822.3437500000,182252.1250000000,163464.2500000000,160164.0625000000,130002.5078125000,117492.0625000000,129221.5000000000,146455.6875000000,,,
1.7079999973,13,178718.1875000000,192854.6406250000,162908.5937500000,159383.5625000000,129263.2109375000,116766.1484375000,128422.9531250000,148621.1718750000,,,
1.7119999973,13,178746.9687500000,205148.3281250000,162901.8750000000,159328.7968750000,129239.3359375000,116718.1640625000,128369.7890625000,149826.7343750000,,,
1.7159999972,13,178873.2968750000,203827.5000000000,163334.6093750000,159901.9531250000,129789.8593750000,117246.9921875000,128952.0468750000,148790.6875000000,,,
1.7199999972,13,178919.6406250000,190504.1875000000,163692.9375000000,160436.2968750000,130275.7109375000,117729.4375000000,129484.0078125000,146770.7343750000,,,
1.7239999971,13,178804.5781250000,182224.6406250000,163450.2500000000,160161.5156250000,129985.4453125000,117464.5468750000,129187.2187500000,146415.2656250000,,,
1.7279999971,13,178704.7500000000,192717.5781250000,162899.2656250000,159387.5781250000,129251.8593750000,116739.9453125000,128387.1406250000,148579.5937500000,,,
1.7319999973,13,178746.8593750000,205092.2656250000,162904.6875000000,159330.4843750000,129237.1640625000,116698.6640625000,128339.2656250000,149821.9375000000,,,
1.7359999972,13,178869.8437500000,203944.1718750000,163329.6875000000,159895.6406250000,129780.0390625000,117225.0234375000,128914.5234375000,148809.0625000000,,,
1.7399999972,13,178917.8750000000,190673.1718750000,163693.3281250000,160437.4062500000,130272.2578125000,117714.6093750000,129452.6250000000,146783.8750000000,,,
1.7439999972,13,178805.1406250000,182233.5781250000,163455.7500000000,160175.3437500000,129988.9062500000,117453.7890625000,129162.1171875000,146404.5625000000,,,
1.7479999971,13,178713.5468750000,192595.5937500000,162909.8125000000,159409.0937500000,129258.8046875000,116740.0234375000,128367.2968750000,148563.0781250000,,,
1.7519999973,13,178764.0000000000,205050.4531250000,162917.6093750000,159351.9687500000,129244.4296875000,116696.9218750000,128321.5625000000,149828.5312500000,,,
1.7559999973,13,178899.5625000000,203968.9843750000,163359.7187500000,159916.4062500000,129804.0234375000,117226.7656250000,128911.2500000000,148826.0156250000,,,
1.7599999972,13,178935.2812500000,190732.7343750000,163706.6875000000,160455.5312500000,130283.0937500000,117710.4765625000,129439.8046875000,146794.5312500000,,,
1.7639999972,13,178802.4062500000,182210.2812500000,163447.6718750000,160175.4062500000,129986.8671875000,117434.5000000000,129141.8906250000,146388.0937500000,,,
1.7679999971,13,178687.0781250000,192435.7343750000,162882.0781250000,159372.5625000000,129239.5781250000,116702.2031250000,128333.3671875000,148521.8750000000,,,
1.7719999971,13,178714.7031250000,204966.5781250000,162864.9375000000,159294.5156250000,129198.4296875000,116643.0078125000,128261.8046875000,149793.5156250000,,,
1.7759999973,13,178825.5312500000,203958.7968750000,163276.7031250000,159867.9375000000,129726.7734375000,117165.1015625000,128825.8203125000,148788.0312500000,,,
1.7799999972,13,178857.0937500000,190759.0000000000,163622.2500000000,160387.1406250000,130198.8437500000,117640.0390625000,129348.7968750000,146748.8281250000,,,
1.7839999972,13,178739.0468750000,182175.2343750000,163389.2187500000,160142.5937500000,129923.4296875000,117385.5234375000,129072.7734375000,146331.2031250000,,,
1.7879999971,13,178649.9843750000,192295.5000000000,162852.2187500000,159375.7031250000,129202.2421875000,116676.3515625000,128293.2656250000,148473.9375000000,,,
1.7919999971,14,178701.4687500000,204913.1250000000,162853.7187500000,159315.9375000000,129176.1953125000,116625.7343750000,128233.2656250000,149782.9062500000,,,
1.7959999971,14,178836.2031250000,204044.2031250000,163288.4062500000,159882.2656250000,129727.7109375000,117159.4140625000,128814.6640625000,148808.0156250000,,,
1.7999999970,14,178880.6718750000,190886.2500000000,163647.9218750000,160418.2187500000,130219.1484375000,117641.9453125000,129355.4765625000,146768.8281250000,,,
1.8039999970,14,178777.3750000000,182162.8125000000,163432.0625000000,160184.9843750000,129965.3046875000,117395.9843750000,129097.9531250000,146330.5625000000,,,
1.8079999969,14,178679.7500000000,192151.3281250000,162882.8437500000,159401.0156250000,129232.9531250000,116671.1171875000,128305.2265625000,148455.2500000000,,,
1.8119999969,14,178708.5781250000,204839.5000000000,162859.0937500000,159303.3593750000,129184.7500000000,116602.6953125000,128224.2031250000,149773.7968750000,,,
1.8159999971,14,178829.2812500000,204111.0156250000,163283.4375000000,159857.4843750000,129723.3906250000,117126.1328125000,128796.6406250000,148814.1562500000,,,
1.8199999970,14,178888.4843750000,191044.5000000000,163659.9218750000,160412.9687500000,130228.5312500000,117632.4531250000,129350.3828125000,146799.8125000000,,,
1.8239999970,14,178774.8281250000,182200.1718750000,163437.3437500000,160183.0156250000,129968.4140625000,117397.2734375000,129091.9453125000,146338.4687500000,,,
1.8279999970,14,178671.0625000000,192043.2187500000,162880.2031250000,159403.3750000000,129225.2265625000,116672.1953125000,128293.5859375000,148443.2500000000,,,
1.8319999969,14,178706.2812500000,204801.3125000000,162850.9375000000,159305.0312500000,129168.4687500000,116606.3203125000,128207.9218750000,149784.4218750000,,,
1.8359999971,14,178842.4531250000,204245.3437500000,163279.0156250000,159869.0156250000,129712.8281250000,117137.7968750000,128787.8671875000,148853.2656250000,,,
1.8399999971,14,178891.4062500000,191229.5937500000,163645.1093750000,160417.4687500000,130212.6328125000,117629.3125000000,129338.8437500000,146817.0625000000,,,
1.8439999970,14,178773.3906250000,182197.1718750000,163427.3593750000,160180.1562500000,129962.3515625000,117396.5000000000,129088.6484375000,146311.9218750000,,,
1.8479999970,14,178657.7031250000,191882.3437500000,162859.0000000000,159382.4375000000,129211.8437500000,116663.8515625000,128275.1328125000,148398.1406250000,,,
1.8519999969,14,178687.2656250000,204704.5000000000,162828.5625000000,159280.5625000000,129153.0468750000,116586.0703125000,128179.4843750000,149754.6093750000,,,
1.8559999969,14,178812.6250000000,204258.5000000000,163255.8437500000,159839.9062500000,129692.0156250000,117100.2187500000,128751.3046875000,148831.2343750000,,,
1.8599999971,14,178866.5156250000,191285.6250000000,163634.4062500000,160398.2187500000,130200.9375000000,117609.3593750000,129310.8203125000,146799.1718750000,,,
1.8639999970,14,178753.5937500000,182153.1875000000,163429.5937500000,160184.5468750000,129962.1640625000,117391.1015625000,129075.8828125000,146278.0937500000,,,
1.8679999970,14,178641.6093750000,191711.6718750000,162866.3281250000,159399.1250000000,129215.3281250000,116662.2421875000,128269.4765625000,148354.0937500000,,,
1.8719999969,14,178672.9375000000,204598.4218750000,162827.8906250000,159283.3281250000,129146.5546875000,116578.3125000000,128170.1562500000,149730.0156250000,,,
1.8759999969,14,178809.4062500000,204279.2968750000,163255.5468750000,159856.9687500000,129688.8203125000,117102.4453125000,128745.6250000000,148834.1406250000,,,
1.8799999971,14,178877.2187500000,191383.8437500000,163645.2968750000,160416.9375000000,130212.6328125000,117614.3750000000,129315.8593750000,146816.9843750000,,,
1.8839999971,14,178772.2343750000,182155.5937500000,163446.6250000000,160199.0000000000,129983.1953125000,117403.6328125000,129091.4375000000,146285.9062500000,,,
1.8879999970,14,178651.0000000000,191581.5312500000,162869.5781250000,159387.0156250000,129223.0000000000,116659.6406250000,128275.0312500000,148345.0625000000,,,
1.8919999970,14,178683.4218750000,204543.6562500000,162827.2187500000,159264.1562500000,129147.2812500000,116566.9140625000,128162.1640625000,149740.8906250000,,,
1.8959999969,14,178820.8125000000,204357.3437500000,163253.5625000000,159823.6093750000,129684.6640625000,117088.1250000000,128728.1093750000,148863.5312500000,,,
1.8999999969,14,178878.8750000000,191521.5312500000,163636.4218750000,160389.1250000000,130200.0468750000,117599.0000000000,129293.5937500000,146838.7812500000,,,
1.9039999971,14,178775.8281250000,182166.8906250000,163447.6406250000,160187.6875000000,129982.6562500000,117401.8593750000,129078.6953125000,146283.7500000000,,,
1.9079999970,14,178666.7656250000,191451.5781250000,162887.5937500000,159400.1406250000,129237.9921875000,116669.3515625000,128274.8437500000,148335.6718750000,,,
1.9119999970,14,178697.1875000000,204482.6875000000,162845.4843750000,159276.7812500000,129159.8593750000,116573.1953125000,128163.0703125000,149749.9687500000,,,
1.9159999969,14,178826.7968750000,204424.0000000000,163269.7343750000,159831.1406250000,129695.3125000000,117078.9218750000,128731.1640625000,148880.6250000000,,,
1.9199999969,15,178886.6562500000,191645.5312500000,163658.6250000000,160398.6718750000,130217.7500000000,117593.3203125000,129303.3593750000,146852.5156250000,,,
1.9239999969,15,178788.0625000000,182164.5000000000,163477.6250000000,160201.7187500000,130011.0078125000,117402.0234375000,129098.3046875000,146270.5000000000,,,
1.9279999968,15,178688.0312500000,191310.4062500000,162918.6875000000,159417.2187500000,129267.6093750000,116678.2265625000,128293.0546875000,148320.5000000000,,,
1.9319999968,15,178720.7343750000,204410.4062500000,162866.0625000000,159282.0156250000,129178.8515625000,116569.6484375000,128167.7109375000,149753.5781250000,,,
1.9359999967,15,178854.9843750000,204488.8593750000,163287.3750000000,159826.8750000000,129710.9218750000,117082.4062500000,128731.0000000000,148909.3437500000,,,
1.9399999967,15,178921.9531250000,191782.2031250000,163679.8437500000,160402.1093750000,130238.7500000000,117606.7812500000,129307.9453125000,146890.3593750000,,,
1.9439999969,15,178820.3750000000,182183.4062500000,163497.4843750000,160217.8593750000,130033.7265625000,117419.5937500000,129107.0468750000,146289.5468750000,,,
1.9479999968,15,178703.8437500000,191200.6718750000,162923.1875000000,159425.1093750000,129277.3437500000,116683.2734375000,128294.7968750000,148322.9062500000,,,
1.9519999968,15,178723.9843750000,204369.0156250000,162858.4218750000,159276.7812500000,129173.8359375000,116565.3046875000,128160.0703125000,149768.3750000000,,,
1.9559999967,15,178842.7968750000,204566.4218750000,163266.1093750000,159814.2500000000,129690.4062500000,117055.4531250000,128708.9843750000,148921.2343750000,,,
1.9599999967,15,178905.0000000000,191917.0468750000,163659.5625000000,160388.0468750000,130218.5312500000,117582.9921875000,129291.7734375000,146895.1093750000,,,
1.9639999969,15,178795.5468750000,182216.4375000000,163479.7968750000,160213.2968750000,130015.4296875000,117403.8984375000,129098.1718750000,146265.3281250000,,,
1.9679999969,15,178674.6562500000,191071.5781250000,162906.4062500000,159422.6093750000,129256.0703125000,116669.7500000000,128286.0000000000,148278.9218750000,,,
1.9719999968,15,178695.2500000000,204303.3593750000,162837.7656250000,159271.8125000000,129144.2265625000,116542.9375000000,128143.1718750000,149747.6406250000,,,
1.9759999968,15,178820.1562500000,204665.4843750000,163250.7500000000,159807.0000000000,129663.2890625000,117041.3750000000,128694.7109375000,148928.8125000000,,,
1.9799999967,15,178886.0625000000,192076.2343750000,163648.4062500000,160390.3281250000,130197.0703125000,117569.1250000000,129280.3750000000,146899.3750000000,,,
1.9839999967,15,178788.2656250000,182220.4062500000,163480.5625000000,160222.9531250000,130010.2812500000,117400.2812500000,129099.0859375000,146245.9843750000,,,
1.9879999969,15,178673.0781250000,190946.3750000000,162912.7812500000,159430.5468750000,129256.9843750000,116658.9687500000,128291.7656250000,148243.1718750000,,,
1.9919999968,15,178696.0000000000,204247.3281250000,162841.1718750000,159270.2343750000,129141.6250000000,116529.7656250000,128143.1718750000,149725.1875000000,,,
1.9959999968,15,178829.8125000000,204722.6093750000,163259.0000000000,159823.2343750000,129667.0390625000,117030.5078125000,128700.5625000000,148929.7812500000,,,
1.9999999967,15,178894.1406250000,192194.4687500000,163654.2812500000,160403.3906250000,130200.0234375000,117555.5000000000,129287.0234375000,146907.6406250000,,,
2.0039999967,15,178785.5625000000,182232.0468750000,163478.1406250000,160232.0312500000,130006.8750000000,117388.8281250000,129098.1171875000,146232.1718750000,,,
2.0079999969,15,178670.6562500000,190820.1250000000,162905.5625000000,159440.8750000000,129250.7890625000,116657.3593750000,128282.4296875000,148228.5468750000,,,
2.0119999968,15,178709.5156250000,204196.2812500000,162845.1718750000,159300.5156250000,129144.6562500000,116536.5000000000,128141.0546875000,149751.0781250000,,,
2.0159999968,15,178838.7187500000,204857.1718750000,163253.4531250000,159808.3750000000,129656.8750000000,117032.2812500000,128683.2578125000,148980.4843750000,,,
2.0199999968,15,178898.3437500000,192422.6093750000,163653.9062500000,160374.8281250000,130190.9843750000,117566.6250000000,129272.9687500000,146955.7812500000,,,
2.0239999967,15,178781.3281250000,182281.7187500000,163478.7500000000,160204.7500000000,129999.0468750000,117396.5781250000,129092.9140625000,146228.3750000000,,,
2.0279999967,15,178652.9218750000,190699.9687500000,162891.4062500000,159415.5937500000,129229.7343750000,116649.2031250000,128268.8046875000,148188.1562500000,,,
2.0319999969,15,178676.7187500000,204129.3593750000,162808.8437500000,159255.0781250000,129103.5859375000,116506.7265625000,128106.5546875000,149713.8750000000,,,
2.0359999968,15,178800.5781250000,204880.0468750000,163209.1406250000,159773.9062500000,129612.8359375000,116992.7968750000,128643.6171875000,148946.6562500000,,,
2.0399999968,15,178881.3437500000,192489.3125000000,163628.5937500000,160381.1250000000,130170.8671875000,117544.5546875000,129250.3359375000,146933.7343750000,,,
2.0439999967,15,178788.9375000000,182283.7031250000,163486.5312500000,160246.7187500000,130016.4218750000,117404.1640625000,129106.2187500000,146220.2500000000,,,
2.0479999967,16,178662.8750000000,190558.0156250000,162912.7031250000,159437.0468750000,129261.3046875000,116658.6171875000,128296.0546875000,148171.0625000000,,,
2.0519999966,16,178686.2343750000,204048.7031250000,162827.9531250000,159261.0312500000,129130.1718750000,116510.3750000000,128125.5234375000,149717.4218750000,,,
2.0559999966,16,178821.8281250000,204882.6250000000,163241.3750000000,159795.5156250000,129648.3437500000,116998.9375000000,128673.1250000000,148970.0468750000,,,
2.0599999966,16,178889.2500000000,192519.1718750000,163644.6250000000,160392.2812500000,130186.5546875000,117531.9765625000,129264.6796875000,146940.3593750000,,,
2.0639999965,16,178778.4843750000,182263.5625000000,163478.7812500000,160226.7968750000,130006.9062500000,117380.9375000000,129094.1484375000,146192.8281250000,,,
2.0679999965,16,178667.6875000000,190412.0000000000,162914.2656250000,159446.7031250000,129257.4375000000,116654.2187500000,128292.7031250000,148144.2968750000,,,
2.0719999967,16,178692.6250000000,203961.9062500000,162829.4218750000,159263.0468750000,129122.8437500000,116496.9921875000,128118.4921875000,149710.6875000000,,,
2.0759999966,16,178817.2656250000,204915.7343750000,163234.7343750000,159781.1406250000,129633.0859375000,116984.9140625000,128656.1718750000,148978.5156250000,,,
2.0799999966,16,178890.1718750000,192617.4531250000,163644.9687500000,160374.8750000000,130182.1875000000,117527.8203125000,129256.0703125000,146963.7187500000,,,
2.0839999965,16,178797.1718750000,182280.7812500000,163503.0312500000,160247.7187500000,130031.3125000000,117395.7187500000,129114.4218750000,146217.9062500000,,,
2.0879999965,16,178690.1093750000,190284.3593750000,162941.9062500000,159469.5468750000,129289.2812500000,116674.6562500000,128318.9609375000,148157.7656250000,,,
2.0919999967,16,178708.1250000000,203900.7500000000,162845.0781250000,159272.5156250000,129142.8046875000,116513.3750000000,128133.1093750000,149743.1875000000,,,
2.0959999966,16,178822.2031250000,205010.2500000000,163235.6093750000,159783.4531250000,129637.7500000000,116989.4687500000,128655.7656250000,149022.2343750000,,,
2.0999999966,16,178891.5312500000,192790.4843750000,163647.6562500000,160375.9843750000,130186.7734375000,117534.4140625000,129256.7187500000,146999.9531250000,,,
2.1039999966,16,178798.1718750000,182317.8437500000,163512.9218750000,160248.0312500000,130043.0859375000,117403.3125000000,129118.8515625000,146218.5468750000,,,
2.1079999965,16,178689.4531250000,190170.6875000000,162950.2343750000,159456.4843750000,129298.0781250000,116675.6562500000,128314.5937500000,148138.6718750000,,,
2.1119999965,16,178718.7031250000,203838.4687500000,162854.3437500000,159260.7656250000,129149.0781250000,116510.5390625000,128123.0000000000,149743.9375000000,,,
2.1159999967,16,178854.3593750000,205097.5312500000,163260.4218750000,159794.8437500000,129655.8281250000,117001.0078125000,128654.6171875000,149057.5312500000,,,
2.1199999966,16,178934.9843750000,192972.4687500000,163684.2187500000,160390.5156250000,130214.8515625000,117550.6406250000,129263.8515625000,147046.7656250000,,,
2.1239999966,16,178817.3437500000,182371.5625000000,163528.8593750000,160254.0468750000,130053.4140625000,117405.9609375000,129115.8203125000,146219.5468750000,,,
2.1279999965,16,178689.2187500000,190055.4218750000,162945.6718750000,159468.5625000000,129289.7578125000,116672.7265625000,128299.0312500000,148106.7500000000,,,
2.1319999965,16,178705.6875000000,203778.6562500000,162831.0781250000,159259.4531250000,129122.7109375000,116494.6328125000,128095.9375000000,149723.3906250000,,,
2.1359999967,16,178832.5312500000,205167.1875000000,163223.3593750000,159768.2968750000,129619.1093750000,116969.2500000000,128618.9375000000,149048.8437500000,,,
2.1399999966,16,178910.2343750000,193113.3437500000,163640.2500000000,160368.6093750000,130179.9062500000,117523.2343750000,129229.6250000000,147039.1406250000,,,
2.1439999966,16,178824.3437500000,182405.6875000000,163518.5156250000,160267.3281250000,130055.8281250000,117416.7500000000,129117.2656250000,146221.8593750000,,,
2.1479999966,16,178719.0468750000,189953.7968750000,162965.4687500000,159491.6250000000,129322.1328125000,116700.8125000000,128327.1406250000,148123.4843750000,,,
2.1519999965,16,178722.8593750000,203729.5781250000,162842.9062500000,159270.8281250000,129144.2500000000,116497.7109375000,128107.2031250000,149747.8281250000,,,
2.1559999965,16,178840.4687500000,205239.5312500000,163231.4062500000,159765.3437500000,129632.8125000000,116964.4453125000,128619.0234375000,149080.9843750000,,,
2.1599999967,16,178916.1562500000,193255.7812500000,163651.9687500000,160364.1250000000,130191.0390625000,117519.5859375000,129230.3515625000,147065.7031250000,,,
2.1639999966,16,178826.2187500000,182434.9531250000,163537.1562500000,160268.7968750000,130069.8828125000,117414.0937500000,129119.2031250000,146217.5937500000,,,
2.1679999966,16,178708.2656250000,189810.7343750000,162973.2187500000,159483.4687500000,129322.2421875000,116681.4453125000,128320.0078125000,148086.0156250000,,,
2.1719999965,16,178720.4687500000,203630.3593750000,162853.3125000000,159259.7500000000,129142.4531250000,116481.7812500000,128101.1953125000,149729.2187500000,,,
2.1759999965,17,178846.5781250000,205265.5625000000,163247.4218750000,159765.5000000000,129634.7734375000,116952.5078125000,128616.2031250000,149083.0468750000,,,
2.1799999964,17,178919.6250000000,193349.9843750000,163667.9531250000,160363.3125000000,130193.2656250000,117505.7968750000,129228.4218750000,147065.8281250000,,,
2.1839999964,17,178833.5468750000,182442.5156250000,163558.2812500000,160268.5312500000,130081.0156250000,117407.0937500000,129128.2890625000,146200.1562500000,,,
2.1879999964,17,178727.1250000000,189683.8593750000,163000.0937500000,159494.2031250000,129341.1250000000,116686.5390625000,128332.3203125000,148066.7500000000,,,
2.1919999963,17,178749.4687500000,203565.0937500000,162879.1718750000,159263.6093750000,129160.8828125000,116490.3671875000,128109.4531250000,149741.6875000000,,,
2.1959999963,17,178866.9218750000,205317.1250000000,163257.1250000000,159760.4375000000,129639.7109375000,116952.8046875000,128614.3828125000,149110.2500000000,,,
2.1999999965,17,178949.4531250000,193461.4843750000,163683.9687500000,160375.9843750000,130207.1328125000,117518.1640625000,129233.5390625000,147107.1406250000,,,
2.2039999964,17,178857.9531250000,182478.7031250000,163568.0781250000,160294.3593750000,130094.8281250000,117423.9062500000,129131.2968750000,146225.0468750000,,,
2.2079999964,17,178732.8906250000,189570.1875000000,162991.5000000000,159521.2187500000,129340.2421875000,116690.8359375000,128325.9921875000,148059.5937500000,,,
2.2119999963,17,178739.3437500000,203494.8281250000,162855.5468750000,159277.8593750000,129144.0625000000,116487.7656250000,128093.8203125000,149743.6406250000,,,
2.2159999963,17,178854.9218750000,205393.3281250000,163236.6562500000,159774.8125000000,129623.8593750000,116943.4687500000,128598.3125000000,149135.7812500000,,,
2.2199999965,17,178930.5625000000,193618.7968750000,163662.6562500000,160390.8593750000,130189.6171875000,117508.6953125000,129218.3359375000,147126.0468750000,,,
2.2239999964,17,178843.8750000000,182502.0312500000,163561.3437500000,160302.6250000000,130089.1171875000,117429.1093750000,129129.4218750000,146218.3593750000,,,
2.2279999964,17,178721.6406250000,189425.5625000000,162989.7031250000,159512.1718750000,129336.7812500000,116695.3671875000,128318.7500000000,148038.5625000000,,,
2.2319999964,17,178724.4062500000,203406.1562500000,162838.0312500000,159259.2968750000,129124.1875000000,116467.1875000000,128064.7656250000,149732.7812500000,,,
2.2359999963,17,178840.8437500000,205426.8281250000,163214.0312500000,159733.9843750000,129599.2578125000,116923.3828125000,128564.6562500000,149135.2968750000,,,
2.2399999963,17,178926.0312500000,193728.7656250000,163650.9531250000,160356.5312500000,130175.4765625000,117489.6484375000,129193.1484375000,147132.7343750000,,,
2.2439999965,17,178838.9375000000,182524.3750000000,163559.5000000000,160285.3125000000,130086.6718750000,117406.1484375000,129117.7500000000,146200.9062500000,,,
2.2479999964,17,178718.4531250000,189300.1718750000,162996.1406250000,159510.7500000000,129342.1484375000,116675.8671875000,128317.0078125000,148004.1250000000,,,
2.2519999964,17,178737.7656250000,203328.9375000000,162866.4687500000,159262.6718750000,129144.5703125000,116461.0234375000,128080.8359375000,149729.2187500000,,,
2.2559999963,17,178856.7187500000,205494.4687500000,163242.8281250000,159751.7500000000,129615.3046875000,116915.0625000000,128576.7265625000,149159.5625000000,,,
2.2599999963,17,178931.3750000000,193888.7343750000,163669.4843750000,160374.1250000000,130184.0078125000,117480.9843750000,129200.7109375000,147158.4531250000,,,
2.2639999965,17,178850.7343750000,182589.2812500000,163586.5625000000,160321.8437500000,130106.6796875000,117414.8437500000,129137.7343750000,146214.3750000000,,,
2.2679999964,17,178733.9375000000,189198.1093750000,163020.0156250000,159535.2656250000,129359.7109375000,116690.8046875000,128336.7187500000,148005.1718750000,,,
2.2719999964,17,178745.0937500000,203269.1718750000,162870.5625000000,159269.1875000000,129145.0312500000,116454.6953125000,128076.2500000000,149742.1406250000,,,
2.2759999963,17,178858.8750000000,205560.9531250000,163234.7343750000,159737.9375000000,129605.5937500000,116893.0468750000,128562.6953125000,149181.6406250000,,,
2.2799999963,17,178945.0000000000,194046.2656250000,163670.5312500000,160362.1093750000,130182.5625000000,117464.0859375000,129192.2890625000,147187.2812500000,,,
2.2839999963,17,178863.9375000000,182639.9843750000,163591.2500000000,160315.0156250000,130110.1171875000,117403.8203125000,129133.7343750000,146214.3125000000,,,
2.2879999964,17,178738.2500000000,189081.0937500000,163021.3125000000,159532.4531250000,129362.2578125000,116676.9375000000,128335.1875000000,147983.6406250000,,,
2.2919999964,17,178748.2812500000,203193.4062500000,162870.6718750000,159263.2656250000,129141.8906250000,116441.0625000000,128070.3515625000,149739.1406250000,,,
2.2959999964,17,178868.7656250000,205615.7812500000,163245.2500000000,159742.9531250000,129609.7500000000,116883.8437500000,128563.4687500000,149204.9843750000,,,
2.2999999963,17,178958.0312500000,194170.5312500000,163685.6562500000,160371.8750000000,130193.1796875000,117464.2187500000,129203.7421875000,147217.4062500000,,,
2.3039999963,18,178883.5781250000,182681.5781250000,163613.6406250000,160333.1093750000,130131.9453125000,117416.0781250000,129157.4453125000,146231.0468750000,,,
2.3079999962,18,178759.0937500000,188960.9531250000,163041.3437500000,159558.9843750000,129382.2421875000,116690.2968750000,128355.6562500000,147978.8125000000,,,
2.3119999962,18,178750.4218750000,203121.7031250000,162861.5781250000,159267.6875000000,129134.1406250000,116434.2031250000,128066.3750000000,149736.8281250000,,,
2.3159999961,18,178859.6718750000,205670.1250000000,163222.1562500000,159743.0781250000,129590.5156250000,116864.4765625000,128546.2500000000,149210.9375000000,,,
2.3199999961,18,178947.8437500000,194293.7031250000,163665.2812500000,160370.5000000000,130175.2421875000,117435.8203125000,129184.1640625000,147219.3906250000,,,
2.3239999961,18,178875.2031250000,182716.1875000000,163600.9375000000,160336.9218750000,130121.6484375000,117399.1484375000,129143.2031250000,146214.5781250000,,,
2.3279999963,18,178753.8125000000,188842.7500000000,163036.0312500000,159562.1718750000,129377.3906250000,116674.7421875000,128346.8281250000,147952.1718750000,,,
2.3319999962,18,178757.1250000000,203053.2343750000,162869.0625000000,159258.0312500000,129134.7812500000,116417.2500000000,128058.9453125000,149732.5156250000,,,
2.3359999962,18,178876.0312500000,205733.7968750000,163240.1562500000,159718.5625000000,129595.5312500000,116853.9687500000,128541.1796875000,149227.5312500000,,,
2.3399999961,18,178960.3437500000,194442.8750000000,163681.1562500000,160347.5156250000,130178.9921875000,117428.4375000000,129178.6093750000,147239.2343750000,,,
2.3439999961,18,178875.3437500000,182777.1406250000,163612.9531250000,160316.8125000000,130124.5156250000,117389.0156250000,129139.7968750000,146208.3593750000,,,
2.3479999963,18,178749.5156250000,188729.9687500000,163047.2500000000,159553.6718750000,129380.9531250000,116664.4140625000,128344.7890625000,147921.4531250000,,,
2.3519999962,18,178757.6718750000,202982.9531250000,162878.5312500000,159267.2812500000,129136.3906250000,116402.6015625000,128057.5000000000,149728.7343750000,,,
2.3559999962,18,178868.2343750000,205793.1562500000,163232.8593750000,159722.8281250000,129581.7187500000,116824.2734375000,128529.3046875000,149239.2812500000,,,
2.3599999961,18,178956.1562500000,194579.0312500000,163675.0625000000,160355.1093750000,130164.2968750000,117402.8828125000,129166.0312500000,147249.2500000000,,,
2.3639999961,18,178878.5781250000,182824.2968750000,163614.3125000000,160336.0937500000,130114.1640625000,117371.9843750000,129135.4531250000,146193.1250000000,,,
2.3679999961,18,178753.3750000000,188623.6406250000,163047.8281250000,159566.4843750000,129369.1562500000,116653.8437500000,128343.6093750000,147889.5937500000,,,
2.3719999962,18,178762.5156250000,202906.6406250000,162877.1875000000,159270.1562500000,129123.6484375000,116394.9843750000,128054.8750000000,149716.4687500000,,,
2.3759999962,18,178879.7031250000,205840.6875000000,163242.4218750000,159733.3750000000,129581.5078125000,116829.2890625000,128537.5859375000,149259.0000000000,,,
2.3799999962,18,178965.2187500000,194699.9375000000,163687.2656250000,160361.4375000000,130169.1796875000,117412.0781250000,129182.0703125000,147278.1562500000,,,
2.3839999961,18,178882.2031250000,182869.1406250000,163623.7812500000,160346.7343750000,130123.4687500000,117385.8984375000,129153.7187500000,146210.2343750000,,,
2.3879999961,18,178763.6562500000,188515.7031250000,163063.9531250000,159576.7343750000,129388.8125000000,116673.3203125000,128369.5468750000,147898.7968750000,,,
2.3919999963,18,178770.0312500000,202833.6875000000,162886.0468750000,159262.7031250000,129134.0859375000,116396.5156250000,128070.3203125000,149734.6875000000,,,
2.3959999962,18,178882.7343750000,205896.0156250000,163238.0312500000,159712.6406250000,129578.2031250000,116819.5546875000,128535.5000000000,149287.3281250000,,,
2.3999999962,18,178969.4531250000,194856.3750000000,163680.7031250000,160350.6093750000,130163.4140625000,117400.4140625000,129175.7968750000,147305.1718750000,,,
2.4039999961,18,178894.3281250000,182919.7656250000,163633.2500000000,160351.0000000000,130130.7421875000,117384.6406250000,129163.1328125000,146208.6093750000,,,
2.4079999961,18,178778.7968750000,188388.2968750000,163080.1875000000,159601.5468750000,129398.7421875000,116680.3437500000,128378.3437500000,147878.5937500000,,,
2.4119999961,18,178761.9375000000,202748.1875000000,162871.3437500000,159268.6562500000,129110.8828125000,116386.0000000000,128046.8828125000,149719.4843750000,,,
2.4159999962,18,178848.6250000000,205917.9062500000,163199.8281250000,159688.4218750000,129529.3593750000,116791.8203125000,128495.3984375000,149267.0781250000,,,
2.4199999962,18,178931.5000000000,194941.1562500000,163645.1562500000,160325.5000000000,130116.4218750000,117375.6015625000,129140.5000000000,147287.8750000000,,,
2.4239999962,18,178863.9062500000,182951.9218750000,163609.0312500000,160335.3906250000,130097.5390625000,117372.4375000000,129142.0546875000,146189.5625000000,,,
2.4279999961,18,178749.9218750000,188257.8593750000,163058.9062500000,159576.5781250000,129370.1484375000,116662.0000000000,128362.4375000000,147840.1875000000,,,
2.4319999961,19,178752.9218750000,202645.4531250000,162865.7187500000,159248.9687500000,129094.2265625000,116365.2421875000,128038.6718750000,149706.1250000000,,,
2.4359999960,19,178870.3437500000,205976.8906250000,163220.8593750000,159688.1250000000,129537.7890625000,116779.6171875000,128502.9921875000,149296.6875000000,,,
2.4399999960,19,178977.7656250000,195126.9218750000,163690.3906250000,160346.2031250000,130152.1953125000,117380.1875000000,129175.1484375000,147338.4843750000,,,
2.4439999959,19,178907.9531250000,183019.5625000000,163654.0937500000,160373.5156250000,130139.3515625000,117381.5000000000,129185.5859375000,146211.9062500000,,,
2.4479999959,19,178766.5156250000,188138.0468750000,163077.0937500000,159588.0468750000,129389.5390625000,116655.6718750000,128389.2890625000,147821.6093750000,,,
2.4519999959,19,178756.7343750000,202545.3750000000,162868.7656250000,159229.0937500000,129098.0078125000,116355.4765625000,128054.0937500000,149696.6562500000,,,
2.4559999960,19,178868.5312500000,206003.3593750000,163215.6875000000,159665.1875000000,129531.9140625000,116769.6640625000,128511.6796875000,149311.6562500000,,,
2.4599999960,19,178948.7500000000,195242.1250000000,163658.7031250000,160310.9375000000,130116.7421875000,117348.5078125000,129157.4453125000,147335.0000000000,,,
2.4639999960,19,178882.0468750000,183044.6406250000,163631.6406250000,160344.1093750000,130111.1328125000,117360.2343750000,129175.6328125000,146184.3750000000,,,
2.4679999959,19,178760.4843750000,187999.2187500000,163076.1250000000,159586.3281250000,129380.5781250000,116651.5937500000,128403.1015625000,147789.5781250000,,,
2.4719999959,19,178757.2343750000,202435.8125000000,162867.7968750000,159241.7812500000,129087.4453125000,116347.7812500000,128068.3359375000,149682.9531250000,,,
2.4759999961,19,178876.9218750000,206016.7187500000,163219.9218750000,159681.2343750000,129528.6953125000,116765.1328125000,128534.5078125000,149318.9375000000,,,
2.4799999960,19,178968.2500000000,195341.2812500000,163670.4062500000,160314.8750000000,130126.0468750000,117354.8984375000,129189.7421875000,147363.1875000000,,,
2.4839999960,19,178895.6875000000,183085.1718750000,163641.9375000000,160340.8125000000,130123.0468750000,117364.1250000000,129206.6093750000,146193.0468750000,,,
2.4879999959,19,178777.9531250000,187890.0625000000,163092.7812500000,159586.3281250000,129404.5625000000,116663.4765625000,128439.7187500000,147786.0625000000,,,
2.4919999959,19,178773.0312500000,202356.0625000000,162880.5937500000,159244.8125000000,129106.3515625000,116351.6718750000,128096.2890625000,149697.1562500000,,,
2.4959999959,19,178879.7343750000,206041.7656250000,163220.2968750000,159675.6875000000,129530.4062500000,116756.4687500000,128542.4687500000,149338.9218750000,,,
2.4999999960,19,178967.3593750000,195430.5468750000,163666.9375000000,160313.0468750000,130119.4218750000,117346.6328125000,129188.5312500000,147383.5625000000,,,
2.5039999960,19,178895.0000000000,183104.0000000000,163643.0468750000,160346.8750000000,130118.9687500000,117360.7968750000,129211.7343750000,146193.9843750000,,,
2.5079999960,19,178772.5625000000,187752.1562500000,163091.6875000000,159602.4218750000,129393.7734375000,116656.5546875000,128439.1015625000,147757.6875000000,,,
2.5119999959,19,178778.1406250000,202251.7812500000,162885.9687500000,159258.7500000000,129096.5859375000,116346.8906250000,128095.8593750000,149685.7656250000,,,
2.5159999959,19,178897.4375000000,206083.1250000000,163233.6875000000,159702.0156250000,129525.5781250000,116749.1718750000,128548.6093750000,149357.7031250000,,,
2.5199999961,19,178999.6093750000,195576.1718750000,163697.4843750000,160356.1250000000,130132.7265625000,117350.7656250000,129212.2968750000,147417.9218750000,,,
2.5239999960,19,178920.7812500000,183175.9375000000,163673.8906250000,160366.8281250000,130137.7187500000,117367.7187500000,129242.1015625000,146208.9531250000,,,
2.5279999960,19,178770.0312500000,187641.0312500000,163100.3750000000,159578.7500000000,129394.9062500000,116651.0000000000,128456.9062500000,147733.1718750000,,,
2.5319999959,19,178764.4218750000,202157.2968750000,162877.0312500000,159217.6875000000,129080.3593750000,116326.4531250000,128092.6640625000,149667.7968750000,,,
2.5359999959,19,178864.9531250000,206109.7187500000,163197.6562500000,159628.4531250000,129485.5625000000,116714.5156250000,128516.2421875000,149344.4218750000,,,
2.5399999958,19,178958.5625000000,195695.3125000000,163651.6562500000,160280.4062500000,130085.3046875000,117307.2343750000,129171.2578125000,147399.5625000000,,,
2.5439999960,19,178895.1562500000,183217.5156250000,163644.0625000000,160337.0625000000,130107.9687500000,117346.0468750000,129216.0546875000,146181.7187500000,,,
2.5479999960,19,178772.8437500000,187526.5312500000,163095.2500000000,159593.1406250000,129388.6562500000,116648.3750000000,128454.7109375000,147708.8125000000,,,
2.5519999960,19,178765.9843750000,202062.4687500000,162867.3281250000,159219.3750000000,129068.6093750000,116319.5625000000,128091.5937500000,149661.4687500000,,,
2.5559999959,19,178872.0937500000,206127.3281250000,163199.7812500000,159633.0000000000,129486.0703125000,116710.4375000000,128531.9062500000,149361.8906250000,,,
2.5599999959,20,178967.5312500000,195797.3437500000,163661.3125000000,160286.7187500000,130092.0937500000,117308.0625000000,129198.7812500000,147428.2812500000,,,
2.5639999958,20,178902.4843750000,183264.6718750000,163657.3906250000,160349.8281250000,130118.1093750000,117355.7500000000,129251.0859375000,146197.5000000000,,,
2.5679999958,20,178766.4687500000,187410.4687500000,163097.6093750000,159603.5781250000,129388.8984375000,116653.2265625000,128480.4609375000,147689.9843750000,,,
2.5719999957,20,178758.4531250000,201964.8906250000,162863.7343750000,159212.3593750000,129061.3203125000,116315.9140625000,128108.2187500000,149650.1406250000,,,
2.5759999957,20,178875.5000000000,206170.8125000000,163197.3437500000,159626.4062500000,129475.2656250000,116711.9453125000,128540.9453125000,149379.9062500000,,,
2.5799999957,20,178975.0937500000,195960.3906250000,163658.2500000000,160284.4062500000,130081.5234375000,117311.0703125000,129202.9375000000,147457.4843750000,,,
2.5839999958,20,178906.1093750000,183332.8437500000,163655.8125000000,160356.9375000000,130112.4765625000,117351.7265625000,129258.0859375000,146194.5156250000,,,
2.5879999958,20,178775.0156250000,187306.8906250000,163103.5156250000,159611.8750000000,129391.1484375000,116656.7968750000,128490.2734375000,147675.1250000000,,,
2.5919999958,20,178769.2343750000,201876.7500000000,162867.9843750000,159215.8125000000,129057.6171875000,116313.8203125000,128110.7187500000,149653.5468750000,,,
2.5959999957,20,178875.1718750000,206208.2343750000,163191.4687500000,159615.8125000000,129459.9218750000,116694.1875000000,128535.7890625000,149390.1562500000,,,
2.5999999957,20,178975.8437500000,196083.5000000000,163657.1250000000,160269.0625000000,130071.4140625000,117297.0156250000,129207.4140625000,147466.2031250000,,,
2.6039999959,20,178923.1093750000,183397.2968750000,163673.6718750000,160359.6093750000,130123.5781250000,117357.8984375000,129288.6875000000,146200.0937500000,,,
2.6079999958,20,178793.3750000000,187198.6093750000,163123.2343750000,159617.0468750000,129405.0390625000,116663.7421875000,128526.5390625000,147662.4687500000,,,
2.6119999958,20,178774.7343750000,201790.2343750000,162870.9375000000,159211.8125000000,129053.0000000000,116301.8359375000,128130.3203125000,149644.4375000000,,,
2.6159999957,20,178878.5625000000,206231.7031250000,163190.6875000000,159615.8437500000,129451.0390625000,116676.3203125000,128551.9687500000,149400.9062500000,,,
2.6199999957,20,178986.9687500000,196174.4687500000,163664.5312500000,160271.4843750000,130069.9921875000,117289.1796875000,129228.1484375000,147493.1406250000,,,
2.6239999956,20,178918.5468750000,183448.7968750000,163672.3125000000,160341.9062500000,130117.2500000000,117347.6250000000,129302.7187500000,146200.7500000000,,,
2.6279999958,20,178781.8125000000,187086.8906250000,163123.7656250000,159595.3750000000,129403.8359375000,116657.6796875000,128548.1875000000,147638.1093750000,,,
2.6319999958,20,178765.1250000000,201688.2812500000,162870.7343750000,159188.3281250000,129051.3671875000,116298.5312500000,128148.8593750000,149638.7500000000,,,
2.6359999957,20,178866.9687500000,206252.7343750000,163182.7031250000,159595.6406250000,129443.2343750000,116671.7656250000,128560.2812500000,149412.2343750000,,,
2.6399999957,20,178964.8906250000,196293.1562500000,163643.2812500000,160260.6406250000,130050.8906250000,117275.8750000000,129226.4062500000,147501.5625000000,,,
2.6439999957,20,178899.5781250000,183499.3593750000,163655.1718750000,160343.4375000000,130102.9531250000,117343.3906250000,129306.0390625000,146196.0468750000,,,
2.6479999959,20,178763.9687500000,186967.8906250000,163105.8281250000,159611.1250000000,129389.2968750000,116656.6328125000,128549.2031250000,147612.2343750000,,,
2.6519999958,20,178754.7500000000,201587.2343750000,162854.7187500000,159207.1250000000,129036.7734375000,116291.0234375000,128148.8281250000,149628.4218750000,,,
2.6559999958,20,178870.5156250000,206278.6875000000,163183.7656250000,159600.2500000000,129440.9609375000,116672.2187500000,128570.3359375000,149433.7187500000,,,
2.6599999957,20,178960.1562500000,196430.1250000000,163640.1718750000,160248.2031250000,130041.5859375000,117259.7812500000,129226.4609375000,147519.0468750000,,,
2.6639999957,20,178904.9687500000,183550.9062500000,163667.0156250000,160345.0000000000,130109.3125000000,117335.7968750000,129319.7187500000,146190.9218750000,,,
2.6679999956,20,178779.9843750000,186846.9375000000,163129.3125000000,159620.7812500000,129408.9843750000,116654.8906250000,128574.0937500000,147590.0000000000,,,
2.6719999958,20,178782.2656250000,201482.8281250000,162885.8281250000,159212.1406250000,129062.6562500000,116293.5703125000,128174.9843750000,149628.2812500000,,,
2.6759999958,20,178880.2656250000,206296.9531250000,163191.4687500000,159581.4843750000,129447.5859375000,116650.2500000000,128575.0859375000,149439.6406250000,,,
2.6799999957,20,178974.9843750000,196529.9375000000,163651.7343750000,160238.2656250000,130053.3593750000,117246.0546875000,129236.2265625000,147535.8906250000,,,
2.6839999957,20,178917.9531250000,183611.0000000000,163678.1875000000,160347.6250000000,130120.0390625000,117323.8046875000,129331.2812500000,146196.5625000000,,,
2.6879999957,21,178791.6250000000,186741.0781250000,163143.0000000000,159631.0468750000,129418.3203125000,116646.2031250000,128585.3359375000,147577.7656250000,,,
2.6919999956,21,178780.5937500000,201382.8281250000,162882.5781250000,159213.5312500000,129048.8203125000,116266.7500000000,128171.2812500000,149618.3281250000,,,
2.6959999956,21,178888.7187500000,206328.8281250000,163196.4531250000,159599.7187500000,129436.9843750000,116633.7578125000,128580.5312500000,149455.1406250000,,,
2.6999999955,21,178994.5000000000,196672.1406250000,163672.5000000000,160281.0000000000,130058.7265625000,117243.6093750000,129262.5390625000,147566.6250000000,,,
2.7039999955,21,178937.2968750000,183687.1875000000,163706.0468750000,160384.4062500000,130137.6875000000,117335.4453125000,129371.4843750000,146213.8593750000,,,
2.7079999954,21,178786.1250000000,186635.3437500000,163146.1093750000,159630.0000000000,129420.7890625000,116646.8203125000,128617.7031250000,147557.3437500000,,,
2.7119999956,21,178760.0312500000,201283.8281250000,162863.6406250000,159192.1875000000,129035.0859375000,116254.3046875000,128183.0000000000,149604.0625000000,,,
2.7159999956,21,178861.8125000000,206351.5937500000,163167.3281250000,159573.7031250000,129415.6640625000,116616.7265625000,128578.7890625000,149460.8281250000,,,
2.7199999955,21,178962.0468750000,196811.0312500000,163635.6406250000,160232.0781250000,130030.6640625000,117221.3750000000,129250.2265625000,147580.9062500000,,,
2.7239999955,21,178909.4218750000,183759.9843750000,163680.7031250000,160350.4218750000,130120.1171875000,117318.3359375000,129367.1953125000,146208.1250000000,,,
2.7279999955,21,178778.7968750000,186542.0312500000,163146.9375000000,159630.7500000000,129423.4140625000,116646.0937500000,128630.2031250000,147538.5156250000,,,
2.7319999957,21,178771.6406250000,201199.4218750000,162876.0312500000,159198.0625000000,129045.1406250000,116257.8437500000,128199.5781250000,149607.2812500000,,,
2.7359999956,21,178885.8437500000,206395.6562500000,163185.3281250000,159581.0781250000,129428.9140625000,116620.4765625000,128596.3593750000,149493.7968750000,,,
2.7399999956,21,178988.0156250000,196967.8593750000,163653.7656250000,160242.3281250000,130043.2500000000,117228.3515625000,129268.6484375000,147625.0781250000,,,
2.7439999955,21,178924.5781250000,183836.0312500000,163690.0312500000,160358.7343750000,130127.4921875000,117330.3828125000,129384.1718750000,146226.1093750000,,,
2.7479999955,21,178781.3593750000,186441.4531250000,163141.7656250000,159627.8906250000,129421.0000000000,116651.2421875000,128636.3750000000,147526.1562500000,,,
2.7519999954,21,178765.4687500000,201095.1406250000,162860.0468750000,159182.8281250000,129029.7187500000,116254.3593750000,128197.5625000000,149602.5312500000,,,
2.7559999956,21,178872.0312500000,206408.5625000000,163163.7031250000,159557.2031250000,129405.2265625000,116608.1406250000,128587.4531250000,149500.2031250000,,,
2.7599999956,21,178984.1875000000,197059.8125000000,163644.6562500000,160221.8593750000,130033.8046875000,117226.5546875000,129268.1171875000,147638.2187500000,,,
2.7639999955,21,178939.0468750000,183905.0937500000,163704.3281250000,160363.1562500000,130141.2265625000,117342.7421875000,129404.1875000000,146235.2031250000,,,
2.7679999955,21,178811.6093750000,186353.6093750000,163177.9531250000,159657.3906250000,129454.1562500000,116676.8593750000,128678.4296875000,147524.5000000000,,,
2.7719999955,21,178792.6250000000,201008.7343750000,162889.7187500000,159208.0312500000,129052.8437500000,116265.9453125000,128227.0156250000,149613.9687500000,,,
2.7759999956,21,178891.5312500000,206428.0312500000,163183.0937500000,159558.8437500000,129416.2812500000,116607.2812500000,128607.7812500000,149519.6562500000,,,
2.7799999956,21,178991.0937500000,197162.0468750000,163651.0625000000,160213.9687500000,130029.1640625000,117213.7578125000,129279.6796875000,147655.4375000000,,,
2.7839999956,21,178935.7968750000,183953.3750000000,163705.6406250000,160359.4531250000,130131.7343750000,117327.7265625000,129412.3671875000,146233.6875000000,,,
2.7879999955,21,178799.5625000000,186238.0312500000,163176.3437500000,159647.4062500000,129444.3359375000,116663.1250000000,128687.7656250000,147495.3593750000,,,
2.7919999955,21,178785.0312500000,200896.3593750000,162890.8125000000,159193.7187500000,129044.8750000000,116257.7890625000,128241.0156250000,149593.5000000000,,,
2.7959999954,21,178883.4687500000,206453.6562500000,163181.6250000000,159555.1718750000,129404.9921875000,116593.1718750000,128615.9062500000,149524.4843750000,,,
2.7999999956,21,178986.0625000000,197306.1406250000,163649.1250000000,160226.9062500000,130021.4375000000,117207.1328125000,129290.9687500000,147674.1562500000,,,
2.8039999956,21,178934.6875000000,184033.4062500000,163706.1250000000,160383.1718750000,130133.1796875000,117340.7890625000,129438.8359375000,146238.6406250000,,,
2.8079999955,21,178794.6250000000,186145.4687500000,163170.2968750000,159666.8593750000,129443.6093750000,116678.8984375000,128716.0390625000,147481.1718750000,,,
2.8119999955,21,178771.2187500000,200802.5625000000,162870.0625000000,159190.6562500000,129031.1718750000,116261.0937500000,128262.2890625000,149590.8125000000,,,
2.8159999955,22,178863.9375000000,206477.1562500000,163151.1250000000,159530.3906250000,129384.5468750000,116600.5234375000,128637.2890625000,149542.5000000000,,,
2.8199999954,22,178969.8281250000,197470.8281250000,163625.3125000000,160194.4531250000,130006.3125000000,117210.8359375000,129322.8046875000,147700.5312500000,,,
2.8239999954,22,178928.8750000000,184112.4062500000,163701.9687500000,160359.5937500000,130137.9531250000,117350.5781250000,129488.3281250000,146241.6406250000,,,
2.8279999953,22,178801.6250000000,186033.3750000000,163186.2343750000,159660.7656250000,129469.2578125000,116708.8281250000,128784.3281250000,147469.0468750000,,,
2.8319999953,22,178788.2656250000,200695.9375000000,162896.0468750000,159187.0312500000,129063.2500000000,116303.3359375000,128339.1093750000,149601.5156250000,,,
2.8359999952,22,178910.3125000000,206528.5468750000,163203.7031250000,159555.7343750000,129438.0625000000,116652.1796875000,128735.5078125000,149596.8281250000,,,
2.8399999954,22,179022.0000000000,197693.3437500000,163678.8437500000,160221.0312500000,130058.2656250000,117264.0468750000,129411.5859375000,147780.2656250000,,,
2.8439999954,22,178963.5312500000,184232.5625000000,163741.1250000000,160368.0625000000,130179.4765625000,117402.0234375000,129566.9921875000,146287.4062500000,,,
2.8479999953,22,178835.8593750000,185959.6718750000,163224.5156250000,159677.5000000000,129509.4843750000,116755.1250000000,128860.4765625000,147487.2656250000,,,
2.8519999953,22,178816.4062500000,200611.1562500000,162918.9218750000,159193.2812500000,129084.3593750000,116320.8515625000,128381.6171875000,149616.0000000000,,,
2.8559999953,22,178917.7500000000,206564.1562500000,163204.5781250000,159532.4218750000,129434.7578125000,116646.5781250000,128746.2109375000,149611.5000000000,,,
2.8599999954,22,179036.1562500000,197841.4218750000,163692.4687500000,160206.1875000000,130067.6562500000,117264.4218750000,129432.1093750000,147807.3906250000,,,
2.8639999954,22,178991.2343750000,184316.3125000000,163775.5468750000,160375.8125000000,130211.7421875000,117417.2265625000,129610.2343750000,146306.8437500000,,,
2.8679999954,22,178860.1562500000,185864.3437500000,163257.6562500000,159687.5625000000,129542.6953125000,116773.1484375000,128905.2421875000,147486.7031250000,,,
2.8719999953,22,178835.9375000000,200509.0468750000,162942.1250000000,159198.2187500000,129107.3437500000,116334.0703125000,128417.2109375000,149633.6562500000,,,
2.8759999953,22,178929.8437500000,206562.3437500000,163216.6718750000,159533.8125000000,129445.3281250000,116647.4921875000,128766.4609375000,149645.2031250000,,,
2.8799999952,22,179034.4687500000,197872.1406250000,163694.3593750000,160191.2343750000,130065.9375000000,117248.7343750000,129448.6796875000,147829.3281250000,,,
2.8839999954,22,178982.9687500000,184377.3281250000,163769.5156250000,160376.3281250000,130198.8671875000,117397.4375000000,129618.8671875000,146316.8750000000,,,
2.8879999954,22,178843.8281250000,185774.7343750000,163243.9531250000,159686.7500000000,129520.8906250000,116750.8593750000,128902.5312500000,147464.4375000000,,,
2.8919999953,22,178795.1406250000,200398.6250000000,162899.2968750000,159190.9531250000,129053.7265625000,116278.5781250000,128377.2968750000,149590.7812500000,,,
2.8959999953,22,178889.5000000000,206550.8906250000,163171.0625000000,159518.4218750000,129389.0312500000,116586.8984375000,128722.0703125000,149620.0156250000,,,
2.8999999953,22,178997.7187500000,197909.8281250000,163645.2968750000,160184.5781250000,130008.7031250000,117194.2812500000,129394.3125000000,147811.0000000000,,,
2.9039999954,22,178954.9375000000,184414.3750000000,163731.2656250000,160377.3750000000,130154.0234375000,117345.6718750000,129564.1796875000,146298.3281250000,,,
2.9079999954,22,178821.1875000000,185666.0781250000,163218.9843750000,159692.0156250000,129493.2031250000,116703.1718750000,128863.4765625000,147427.8750000000,,,
2.9119999954,22,178795.2500000000,200292.6718750000,162897.5000000000,159194.2968750000,129047.3437500000,116246.7656250000,128363.9453125000,149585.4687500000,,,
2.9159999953,22,178883.3593750000,206572.7187500000,163160.7343750000,159513.1718750000,129373.3671875000,116550.8515625000,128699.0078125000,149632.5000000000,,,
2.9199999953,22,178989.1093750000,198031.8437500000,163635.7812500000,160182.9375000000,129994.1875000000,117163.2265625000,129376.1015625000,147824.6875000000,,,
2.9239999952,22,178947.4375000000,184499.3593750000,163727.6406250000,160376.5625000000,130143.7265625000,117324.6093750000,129554.7109375000,146295.0156250000,,,
2.9279999954,22,178810.6406250000,185576.3281250000,163213.9218750000,159695.6562500000,129479.2578125000,116680.9062500000,128852.1015625000,147393.2031250000,,,
2.9319999954,22,178783.6562500000,200190.9843750000,162885.9843750000,159188.5312500000,129023.1250000000,116216.2421875000,128340.8515625000,149555.6718750000,,,
2.9359999953,22,178882.6250000000,206593.0937500000,163156.6250000000,159509.9531250000,129352.6015625000,116519.4140625000,128678.2968750000,149624.3437500000,,,
2.9399999953,22,178998.6718750000,198193.0156250000,163640.7656250000,160184.8125000000,129981.1015625000,117133.4218750000,129357.5937500000,147838.2656250000,,,
2.9439999952,23,178962.5937500000,184591.2812500000,163741.2187500000,160394.5937500000,130147.4765625000,117308.8671875000,129551.2265625000,146298.0468750000,,,
